   PbSO4.pcr   Chi2:  3.9776  CELL:    8.47893   5.39686   6.95832   90.0000   90.0000   90.0000   SPGR: P n m a                TEMP:      0.00
  1   2910     1.91200     1.91200    -0.08905     0.00000     0.00000    0
   211     0     2
       0.00000      10.00000
     154.00000     180.00000
 2Theta	Yobs	Ycal	Yobs-Ycal	Backg	Posr	(hkl)	K
     10.0000	  220.00	  194.04	 -614.75	  145.53
     10.0500	  214.00	  194.07	 -594.82	  145.56
     10.1000	  219.00	  194.10	 -589.85	  145.59
     10.1500	  224.00	  194.12	 -584.87	  145.61
     10.2000	  198.00	  194.15	 -610.90	  145.64
     10.2500	  229.00	  194.18	 -579.93	  145.67
     10.3000	  224.00	  194.20	 -584.95	  145.69
     10.3500	  216.00	  194.23	 -592.98	  145.72
     10.4000	  202.00	  194.26	 -607.01	  145.75
     10.4500	  229.00	  194.28	 -580.03	  145.77
     10.5000	  202.00	  194.31	 -607.06	  145.80
     10.5500	  215.00	  194.34	 -594.09	  145.82
     10.6000	  215.00	  194.36	 -594.11	  145.85
     10.6500	  196.00	  194.39	 -613.14	  145.88
     10.7000	  235.00	  194.41	 -574.16	  145.90
     10.7500	  207.00	  194.44	 -602.19	  145.93
     10.8000	  205.00	  194.46	 -604.21	  145.95
     10.8500	  238.00	  194.49	 -571.24	  145.98
     10.9000	  202.00	  194.51	 -607.26	  146.00
     10.9500	  213.00	  194.54	 -596.29	  146.03
     11.0000	  226.00	  194.56	 -583.31	  146.05
     11.0500	  198.00	  194.59	 -611.34	  146.08
     11.1000	  222.00	  194.61	 -587.36	  146.10
     11.1500	  186.00	  194.64	 -623.39	  146.13
     11.2000	  216.00	  194.66	 -593.41	  146.15
     11.2500	  218.00	  194.69	 -591.44	  146.18
     11.3000	  225.00	  194.71	 -584.46	  146.20
     11.3500	  200.00	  194.73	 -609.48	  146.22
     11.4000	  196.00	  194.76	 -613.51	  146.25
     11.4500	  224.00	  194.78	 -585.53	  146.27
     11.5000	  199.00	  194.81	 -610.56	  146.29
     11.5500	  204.00	  194.83	 -605.58	  146.32
     11.6000	  189.00	  194.85	 -620.60	  146.34
     11.6500	  211.00	  194.88	 -598.63	  146.37
     11.7000	  190.00	  194.90	 -619.65	  146.39
     11.7500	  184.00	  194.92	 -625.67	  146.41
     11.8000	  204.00	  194.95	 -605.70	  146.43
     11.8500	  204.00	  194.97	 -605.72	  146.46
     11.9000	  219.00	  194.99	 -590.74	  146.48
     11.9500	  207.00	  195.01	 -602.76	  146.50
     12.0000	  227.00	  195.04	 -582.79	  146.53
     12.0500	  211.00	  195.06	 -598.81	  146.55
     12.1000	  193.00	  195.08	 -616.83	  146.57
     12.1500	  206.00	  195.10	 -603.85	  146.59
     12.2000	  208.00	  195.13	 -601.88	  146.61
     12.2500	  191.00	  195.15	 -618.90	  146.64
     12.3000	  194.00	  195.17	 -615.92	  146.66
     12.3500	  185.00	  195.19	 -624.94	  146.68
     12.4000	  200.00	  195.21	 -609.96	  146.70
     12.4500	  203.00	  195.23	 -606.98	  146.72
     12.5000	  197.00	  195.26	 -613.01	  146.75
     12.5500	  203.00	  195.28	 -607.03	  146.77
     12.6000	  200.00	  195.30	 -610.05	  146.79
     12.6500	  200.00	  195.32	 -610.07	  146.81
     12.7000	  205.00	  195.34	 -605.09	  146.83
     12.7500	  208.00	  195.36	 -602.11	  146.85
     12.8000	  205.00	  195.38	 -605.13	  146.87
     12.8500	  201.00	  195.40	 -609.15	  146.89
     12.9000	  221.00	  195.42	 -589.17	  146.91
     12.9500	  218.00	  195.44	 -592.19	  146.93
     13.0000	  218.00	  195.47	 -592.22	  146.95
     13.0500	  216.00	  195.49	 -594.24	  146.97
     13.1000	  202.00	  195.51	 -608.26	  147.00
     13.1500	  206.00	  195.53	 -604.28	  147.02
     13.2000	  197.00	  195.55	 -613.30	  147.04
     13.2500	  210.00	  195.57	 -600.32	  147.06
     13.3000	  199.00	  195.59	 -611.34	  147.07
     13.3500	  219.00	  195.61	 -591.36	  147.09
     13.4000	  192.00	  195.63	 -618.38	  147.11
     13.4500	  211.00	  195.64	 -599.39	  147.13
     13.5000	  199.00	  195.66	 -611.41	  147.15
     13.5500	  196.00	  195.68	 -614.43	  147.17
     13.6000	  195.00	  195.70	 -615.45	  147.19
     13.6500	  203.00	  195.72	 -607.47	  147.21
     13.7000	  202.00	  195.74	 -608.49	  147.23
     13.7500	  200.00	  195.76	 -610.51	  147.25
     13.8000	  199.00	  195.78	 -611.53	  147.27
     13.8500	  191.00	  195.80	 -619.55	  147.29
     13.9000	  204.00	  195.82	 -606.57	  147.30
     13.9500	  191.00	  195.83	 -619.58	  147.32
     14.0000	  200.00	  195.85	 -610.60	  147.34
     14.0500	  199.00	  195.87	 -611.62	  147.36
     14.1000	  197.00	  195.89	 -613.64	  147.38
     14.1500	  202.00	  195.91	 -608.66	  147.40
     14.2000	  210.00	  195.93	 -600.68	  147.41
     14.2500	  202.00	  195.94	 -608.69	  147.43
     14.3000	  198.00	  195.96	 -612.71	  147.45
     14.3500	  191.00	  195.98	 -619.73	  147.47
     14.4000	  194.00	  196.00	 -616.75	  147.49
     14.4500	  198.00	  196.01	 -612.76	  147.50
     14.5000	  194.00	  196.03	 -616.78	  147.52
     14.5500	  193.00	  196.05	 -617.80	  147.54
     14.6000	  212.00	  196.07	 -598.82	  147.56
     14.6500	  214.00	  196.08	 -596.83	  147.57
     14.7000	  197.00	  196.10	 -613.85	  147.59
     14.7500	  195.00	  196.12	 -615.87	  147.61
     14.8000	  205.00	  196.13	 -605.88	  147.62
     14.8500	  209.00	  196.15	 -601.90	  147.64
     14.9000	  203.00	  196.17	 -607.92	  147.66
     14.9500	  197.00	  196.18	 -613.93	  147.67
     15.0000	  191.00	  196.20	 -619.95	  147.69
     15.0500	  192.00	  196.22	 -618.97	  147.71
     15.1000	  215.00	  196.23	 -595.98	  147.72
     15.1500	  194.00	  196.25	 -617.00	  147.74
     15.2000	  189.00	  196.27	 -622.02	  147.76
     15.2500	  188.00	  196.28	 -623.03	  147.77
     15.3000	  202.00	  196.30	 -609.05	  147.79
     15.3500	  201.00	  196.31	 -610.06	  147.80
     15.4000	  198.00	  196.33	 -613.08	  147.82
     15.4500	  208.00	  196.35	 -603.10	  147.84
     15.5000	  197.00	  196.36	 -614.11	  147.85
     15.5500	  187.00	  196.38	 -624.13	  147.87
     15.6000	  187.00	  196.39	 -624.14	  147.88
     15.6500	  190.00	  196.41	 -621.16	  147.90
     15.7000	  197.00	  196.42	 -614.17	  147.91
     15.7500	  200.00	  196.44	 -611.19	  147.93
     15.8000	  193.00	  196.45	 -618.20	  147.94
     15.8500	  180.00	  196.47	 -631.22	  147.96
     15.9000	  194.00	  196.48	 -617.23	  147.97
     15.9500	  206.00	  196.50	 -605.25	  147.99
     16.0000	  195.00	  196.51	 -616.26	  148.00
     16.0500	  193.00	  196.53	 -618.28	  148.02
     16.1000	  205.00	  196.54	 -606.29	  148.03
     16.1500	  194.00	  196.56	 -617.31	  148.05
     16.2000	  196.00	  196.57	 -615.32	  148.06
     16.2500	  194.00	  196.59	 -617.34	  148.08
     16.3000	  199.00	  196.60	 -612.35	  148.09
     16.3500	  207.00	  196.62	 -604.37	  148.10
     16.4000	  188.00	  196.63	 -623.38	  148.12
     16.4500	  203.00	  196.64	 -608.39	  148.13
     16.5000	  188.00	  196.66	 -623.41	  148.15
     16.5500	  180.00	  196.67	 -631.42	  148.16
     16.6000	  198.00	  196.73	 -613.48	  148.17
     16.6500	  200.00	  196.75	 -611.50	  148.19
     16.7000	  201.00	  196.76	 -610.51	  148.20
     16.7500	  210.00	  196.78	 -601.53	  148.22
     16.8000	  206.00	  196.79	 -605.54	  148.23
     16.8500	  189.00	  196.81	 -622.56	  148.24
     16.9000	  194.00	  196.82	 -617.57	  148.26
     16.9500	  187.00	  196.84	 -624.59	  148.27
     17.0000	  195.00	  196.85	 -616.60	  148.28
     17.0500	  201.00	  196.87	 -610.62	  148.30
     17.1000	  197.00	  196.88	 -614.63	  148.31
     17.1500	  206.00	  196.90	 -605.65	  148.32
     17.2000	  208.00	  196.91	 -603.66	  148.33
     17.2500	  199.00	  196.92	 -612.67	  148.35
     17.3000	  192.00	  196.94	 -619.69	  148.36
     17.3500	  193.00	  196.95	 -618.70	  148.37
     17.4000	  204.00	  196.97	 -607.72	  148.38
     17.4500	  201.00	  196.98	 -610.73	  148.40
     17.5000	  200.00	  197.00	 -611.75	  148.41
     17.5500	  177.00	  197.01	 -634.76	  148.42
     17.6000	  193.00	  197.03	 -618.78	  148.43
     17.6500	  199.00	  197.05	 -612.80	  148.45
     17.7000	  201.00	  197.06	 -610.81	  148.46
     17.7500	  194.00	  197.08	 -617.83	  148.47
     17.8000	  184.00	  197.09	 -627.84	  148.48
     17.8500	  192.00	  197.11	 -619.86	  148.49
     17.9000	  199.00	  197.12	 -612.87	  148.51
     17.9500	  190.00	  197.14	 -621.89	  148.52
     18.0000	  183.00	  197.16	 -628.91	  148.53
     18.0500	  189.00	  197.17	 -622.92	  148.54
     18.1000	  196.00	  197.19	 -615.94	  148.55
     18.1500	  196.00	  197.21	 -615.96	  148.56
     18.2000	  198.00	  197.22	 -613.97	  148.58
     18.2500	  210.00	  197.24	 -601.99	  148.59
     18.3000	  212.00	  197.26	 -600.01	  148.60
     18.3500	  219.00	  197.28	 -593.03	  148.61
     18.4000	  198.00	  197.30	 -614.05	  148.62
     18.4500	  195.00	  197.32	 -617.07	  148.63
     18.5000	  198.00	  197.34	 -614.09	  148.64
     18.5500	  191.00	  197.36	 -621.11	  148.65
     18.6000	  193.00	  197.38	 -619.13	  148.67
     18.6500	  197.00	  197.40	 -615.15	  148.68
     18.7000	  194.00	  197.43	 -618.18	  148.69
     18.7500	  187.00	  197.46	 -625.21	  148.70
     18.8000	  209.00	  197.49	 -603.24	  148.71
     18.8500	  187.00	  197.52	 -625.27	  148.72
     18.9000	  198.00	  197.56	 -614.31	  148.73
     18.9500	  206.00	  197.60	 -606.35	  148.74
     19.0000	  197.00	  197.64	 -615.39	  148.75
     19.0500	  191.00	  197.70	 -621.45	  148.76
     19.1000	  200.00	  197.76	 -612.51	  148.77
     19.1500	  207.00	  197.83	 -605.58	  148.78
     19.2000	  205.00	  197.92	 -607.67	  148.79
     19.2500	  198.00	  198.02	 -614.77	  148.80
     19.3000	  196.00	  198.14	 -616.89	  148.81
     19.3500	  209.00	  198.29	 -604.04	  148.82
     19.4000	  211.00	  198.49	 -602.24	  148.83
     19.4500	  203.00	  198.74	 -610.49	  148.84
     19.5000	  200.00	  199.10	 -613.85	  148.85
     19.5500	  192.00	  199.61	 -622.36	  148.86
     19.6000	  208.00	  200.36	 -607.11	  148.87
     19.6500	  213.00	  201.45	 -603.20	  148.88
     19.7000	  221.00	  203.02	 -596.77	  148.89
     19.7500	  216.00	  205.22	 -603.97	  148.90
     19.8000	  226.00	  208.17	 -596.92	  148.91
     19.8500	  228.00	  211.96	 -598.71	  148.92
     19.9000	  228.00	  216.60	 -603.35	  148.92
     19.9500	  215.00	  221.98	 -621.73	  148.93
     20.0000	  224.00	  227.84	 -618.59	  148.94
     20.0500	  226.00	  233.85	 -622.60	  148.95
     20.1000	  213.00	  239.54	 -641.29	  148.96
     20.1500	  239.00	  244.46	 -620.21	  148.97
     20.2000	  250.00	  248.13	 -612.88	  148.98
     20.2500	  247.00	  250.16	 -617.91	  148.99
     20.3000	  240.00	  250.26	 -625.01	  149.00
     20.3500	  231.00	  248.30	 -632.05	  149.00
     20.4000	  236.00	  244.37	 -623.12	  149.01
     20.4500	  223.00	  238.82	 -630.57	  149.02
     20.5000	  231.00	  232.20	 -615.95	  149.03
     20.5500	  226.00	  225.17	 -613.92	  149.04
     20.6000	  214.00	  218.37	 -619.12	  149.05
     20.6500	  208.00	  212.30	 -619.05	  149.06
     20.7000	  214.00	  207.29	 -608.04	  149.06
     20.7500	  196.00	  203.47	 -622.22	  149.07
     20.8000	  204.00	  200.79	 -611.54	  149.08
     20.8500	  199.00	  199.10	 -614.85	  149.09
     20.9000	  186.00	  198.14	 -626.89	  149.10
     20.9500	  192.00	  197.69	 -620.44	  149.10
     21.0000	  199.00	  197.62	 -613.37	  149.11
     21.0500	  200.00	  197.63	 -612.38	  149.12
     21.1000	  184.00	  197.64	 -628.39	  149.13
     21.1500	  184.00	  197.65	 -628.40	  149.14
     21.2000	  189.00	  197.71	 -623.46	  149.14
     21.2500	  182.00	  197.77	 -630.52	  149.15
     21.3000	  184.00	  197.82	 -628.57	  149.16
     21.3500	  185.00	  197.86	 -627.61	  149.17
     21.4000	  195.00	  197.89	 -617.64	  149.17
     21.4500	  190.00	  197.93	 -622.68	  149.18
     21.5000	  194.00	  197.95	 -618.70	  149.19
     21.5500	  185.00	  197.97	 -627.72	  149.20
     21.6000	  183.00	  197.99	 -629.74	  149.20
     21.6500	  193.00	  198.00	 -619.75	  149.21
     21.7000	  194.00	  198.01	 -618.76	  149.22
     21.7500	  193.00	  198.01	 -619.76	  149.22
     21.8000	  188.00	  198.01	 -624.76	  149.23
     21.8500	  191.00	  198.01	 -621.76	  149.24
     21.9000	  189.00	  198.01	 -623.76	  149.25
     21.9500	  188.00	  198.01	 -624.76	  149.25
     22.0000	  201.00	  198.00	 -611.75	  149.26
     22.0500	  195.00	  198.00	 -617.75	  149.27
     22.1000	  205.00	  198.00	 -607.75	  149.27
     22.1500	  200.00	  198.01	 -612.76	  149.28
     22.2000	  200.00	  198.01	 -612.76	  149.29
     22.2500	  192.00	  198.01	 -620.76	  149.29
     22.3000	  197.00	  198.01	 -615.76	  149.30
     22.3500	  204.00	  198.01	 -608.76	  149.31
     22.4000	  207.00	  198.01	 -605.76	  149.31
     22.4500	  192.00	  198.01	 -620.76	  149.32
     22.5000	  201.00	  198.01	 -611.76	  149.33
     22.5500	  190.00	  198.01	 -622.76	  149.33
     22.6000	  195.00	  198.01	 -617.76	  149.34
     22.6500	  194.00	  198.01	 -618.76	  149.34
     22.7000	  182.00	  198.01	 -630.76	  149.35
     22.7500	  189.00	  198.01	 -623.76	  149.36
     22.8000	  196.00	  198.01	 -616.76	  149.36
     22.8500	  196.00	  198.02	 -616.77	  149.37
     22.9000	  200.00	  198.02	 -612.77	  149.37
     22.9500	  190.00	  198.02	 -622.77	  149.38
     23.0000	  183.00	  198.03	 -629.78	  149.39
     23.0500	  199.00	  198.03	 -613.78	  149.39
     23.1000	  187.00	  198.03	 -625.78	  149.40
     23.1500	  196.00	  198.04	 -616.79	  149.40
     23.2000	  191.00	  198.04	 -621.79	  149.41
     23.2500	  191.00	  198.05	 -621.80	  149.42
     23.3000	  195.00	  198.05	 -617.80	  149.42
     23.3500	  194.00	  198.06	 -618.81	  149.43
     23.4000	  192.00	  198.06	 -620.81	  149.43
     23.4500	  182.00	  198.07	 -630.82	  149.44
     23.5000	  188.00	  198.07	 -624.82	  149.44
     23.5500	  203.00	  198.08	 -609.83	  149.45
     23.6000	  187.00	  198.08	 -625.83	  149.46
     23.6500	  192.00	  198.09	 -620.84	  149.46
     23.7000	  206.00	  198.09	 -606.84	  149.47
     23.7500	  201.00	  198.10	 -611.85	  149.47
     23.8000	  184.00	  198.11	 -628.86	  149.48
     23.8500	  192.00	  198.11	 -620.86	  149.48
     23.9000	  205.00	  198.12	 -607.87	  149.49
     23.9500	  196.00	  198.13	 -616.88	  149.49
     24.0000	  193.00	  198.14	 -619.89	  149.50
     24.0500	  194.00	  198.14	 -618.89	  149.50
     24.1000	  195.00	  198.15	 -617.90	  149.51
     24.1500	  194.00	  198.16	 -618.91	  149.51
     24.2000	  201.00	  198.13	 -611.88	  149.52
     24.2500	  193.00	  198.14	 -619.89	  149.52
     24.3000	  176.00	  198.15	 -636.90	  149.53
     24.3500	  187.00	  198.16	 -625.91	  149.53
     24.4000	  188.00	  198.18	 -624.93	  149.54
     24.4500	  196.00	  198.20	 -616.95	  149.54
     24.5000	  192.00	  198.22	 -620.97	  149.55
     24.5500	  185.00	  198.24	 -627.99	  149.55
     24.6000	  195.00	  198.27	 -618.02	  149.56
     24.6500	  198.00	  198.30	 -615.05	  149.56
     24.7000	  205.00	  198.33	 -608.08	  149.57
     24.7500	  200.00	  198.37	 -613.12	  149.57
     24.8000	  208.00	  198.42	 -605.17	  149.57
     24.8500	  195.00	  198.49	 -618.24	  149.58
     24.9000	  187.00	  198.57	 -626.32	  149.58
     24.9500	  193.00	  198.69	 -620.44	  149.59
     25.0000	  197.00	  198.86	 -616.61	  149.59
     25.0500	  202.00	  199.10	 -611.85	  149.60
     25.1000	  193.00	  199.45	 -621.20	  149.60
     25.1500	  196.00	  199.96	 -618.71	  149.61
     25.2000	  202.00	  200.69	 -613.44	  149.61
     25.2500	  201.00	  201.69	 -615.44	  149.61
     25.3000	  197.00	  202.99	 -620.74	  149.62
     25.3500	  204.00	  204.67	 -615.42	  149.62
     25.4000	  208.00	  206.60	 -613.35	  149.63
     25.4500	  206.00	  208.77	 -617.52	  149.63
     25.5000	  212.00	  211.05	 -613.80	  149.63
     25.5500	  207.00	  213.32	 -621.07	  149.64
     25.6000	  207.00	  215.37	 -623.12	  149.64
     25.6500	  212.00	  217.04	 -619.79	  149.65
     25.7000	  216.00	  218.16	 -616.91	  149.65
     25.7500	  218.00	  218.57	 -615.32	  149.65
     25.8000	  221.00	  218.21	 -611.96	  149.66
     25.8500	  218.00	  217.08	 -613.83	  149.66
     25.9000	  207.00	  215.30	 -623.05	  149.67
     25.9500	  203.00	  213.04	 -624.79	  149.67
     26.0000	  204.00	  210.54	 -621.29	  149.67
     26.0500	  202.00	  208.02	 -620.77	  149.68
     26.1000	  206.00	  205.69	 -614.44	  149.68
     26.1500	  202.00	  203.67	 -616.42	  149.68
     26.2000	  202.00	  202.04	 -614.79	  149.69
     26.2500	  181.00	  200.81	 -634.56	  149.69
     26.3000	  193.00	  199.93	 -621.68	  149.70
     26.3500	  205.00	  199.33	 -609.08	  149.70
     26.4000	  198.00	  198.96	 -615.71	  149.70
     26.4500	  196.00	  198.73	 -617.48	  149.71
     26.5000	  197.00	  198.61	 -616.36	  149.71
     26.5500	  195.00	  198.54	 -618.29	  149.71
     26.6000	  201.00	  198.51	 -612.26	  149.72
     26.6500	  205.00	  198.50	 -608.25	  149.72
     26.7000	  195.00	  198.50	 -618.25	  149.72
     26.7500	  196.00	  198.50	 -617.25	  149.73
     26.8000	  196.00	  198.51	 -617.26	  149.73
     26.8500	  205.00	  198.52	 -608.27	  149.73
     26.9000	  198.00	  198.53	 -615.28	  149.74
     26.9500	  200.00	  198.67	 -613.42	  149.74
     27.0000	  199.00	  198.68	 -614.43	  149.74
     27.0500	  180.00	  198.70	 -633.45	  149.75
     27.1000	  187.00	  198.71	 -626.46	  149.75
     27.1500	  193.00	  198.73	 -620.48	  149.75
     27.2000	  197.00	  198.74	 -616.49	  149.76
     27.2500	  197.00	  198.76	 -616.51	  149.76
     27.3000	  196.00	  198.78	 -617.53	  149.76
     27.3500	  194.00	  198.79	 -619.54	  149.77
     27.4000	  197.00	  198.82	 -616.57	  149.77
     27.4500	  204.00	  198.84	 -609.59	  149.77
     27.5000	  201.00	  198.87	 -612.62	  149.77
     27.5500	  187.00	  198.90	 -626.65	  149.78
     27.6000	  191.00	  198.94	 -622.69	  149.78
     27.6500	  205.00	  198.98	 -608.73	  149.78
     27.7000	  200.00	  199.03	 -613.78	  149.79
     27.7500	  198.00	  199.09	 -615.84	  149.79
     27.8000	  200.00	  199.16	 -613.91	  149.79
     27.8500	  204.00	  199.25	 -610.00	  149.79
     27.9000	  196.00	  199.35	 -618.10	  149.80
     27.9500	  195.00	  199.48	 -619.23	  149.80
     28.0000	  194.00	  199.64	 -620.39	  149.80
     28.0500	  200.00	  199.85	 -614.60	  149.81
     28.1000	  198.00	  200.14	 -616.89	  149.81
     28.1500	  201.00	  200.55	 -614.30	  149.81
     28.2000	  208.00	  201.15	 -607.90	  149.81
     28.2500	  205.00	  202.36	 -612.11	  149.82
     28.3000	  211.00	  203.69	 -607.44	  149.82
     28.3500	  211.00	  205.59	 -609.34	  149.82
     28.4000	  220.00	  208.21	 -602.96	  149.82
     28.4500	  220.00	  211.70	 -606.45	  149.83
     28.5000	  212.00	  216.12	 -618.87	  149.83
     28.5500	  208.00	  221.40	 -628.15	  149.83
     28.6000	  214.00	  227.38	 -628.13	  149.84
     28.6500	  226.00	  233.73	 -622.48	  149.84
     28.7000	  235.00	  240.01	 -619.76	  149.84
     28.7500	  233.00	  245.71	 -627.46	  149.84
     28.8000	  237.00	  250.30	 -628.05	  149.85
     28.8500	  242.00	  253.28	 -626.03	  149.85
     28.9000	  242.00	  254.24	 -626.99	  149.85
     28.9500	  245.00	  252.97	 -622.72	  149.85
     29.0000	  239.00	  249.51	 -625.26	  149.86
     29.0500	  226.00	  244.21	 -632.96	  149.86
     29.1000	  232.00	  237.71	 -620.46	  149.86
     29.1500	  238.00	  230.71	 -607.46	  149.86
     29.2000	  226.00	  223.90	 -612.65	  149.86
     29.2500	  218.00	  217.82	 -614.57	  149.87
     29.3000	  218.00	  212.77	 -609.52	  149.87
     29.3500	  214.00	  208.90	 -609.65	  149.87
     29.4000	  205.00	  206.14	 -615.89	  149.87
     29.4500	  200.00	  204.36	 -619.11	  149.88
     29.5000	  193.00	  203.33	 -625.08	  149.88
     29.5500	  195.00	  202.85	 -622.60	  149.88
     29.6000	  196.00	  202.81	 -621.56	  149.88
     29.6500	  195.00	  203.12	 -622.87	  149.89
     29.7000	  207.00	  204.50	 -612.25	  149.89
     29.7500	  215.00	  205.64	 -605.39	  149.89
     29.8000	  207.00	  207.40	 -615.15	  149.89
     29.8500	  218.00	  210.03	 -606.78	  149.89
     29.9000	  218.00	  213.87	 -610.62	  149.90
     29.9500	  220.00	  219.25	 -614.00	  149.90
     30.0000	  220.00	  226.48	 -621.23	  149.90
     30.0500	  229.00	  235.75	 -621.50	  149.90
     30.1000	  236.00	  247.03	 -625.78	  149.91
     30.1500	  254.00	  259.98	 -620.73	  149.91
     30.2000	  264.00	  273.96	 -624.71	  149.91
     30.2500	  280.00	  288.04	 -622.79	  149.91
     30.3000	  289.00	  301.12	 -626.87	  149.91
     30.3500	  289.00	  312.01	 -637.76	  149.92
     30.4000	  303.00	  319.54	 -631.29	  149.92
     30.4500	  302.00	  322.77	 -635.52	  149.92
     30.5000	  297.00	  321.08	 -638.83	  149.92
     30.5500	  281.00	  314.47	 -648.22	  149.92
     30.6000	  278.00	  303.63	 -640.38	  149.93
     30.6500	  280.00	  289.89	 -624.64	  149.93
     30.7000	  265.00	  274.87	 -624.62	  149.93
     30.7500	  258.00	  260.13	 -616.88	  149.93
     30.8000	  243.00	  246.92	 -618.67	  149.93
     30.8500	  240.00	  236.08	 -610.83	  149.94
     30.9000	  232.00	  228.05	 -610.80	  149.94
     30.9500	  231.00	  223.08	 -606.83	  149.94
     31.0000	  233.00	  220.79	 -602.54	  149.94
     31.0500	  246.00	  221.31	 -590.06	  149.94
     31.1000	  248.00	  224.78	 -591.53	  149.95
     31.1500	  249.00	  231.59	 -597.34	  149.95
     31.2000	  256.00	  242.38	 -601.13	  149.95
     31.2500	  272.00	  257.90	 -600.65	  149.95
     31.3000	  289.00	  278.76	 -604.51	  149.95
     31.3500	  311.00	  305.21	 -608.96	  149.96
     31.4000	  340.00	  336.80	 -611.55	  149.96
     31.4500	  363.00	  372.33	 -624.08	  149.96
     31.5000	  393.00	  409.72	 -631.47	  149.96
     31.5500	  440.00	  446.26	 -621.01	  149.96
     31.6000	  474.00	  478.81	 -619.56	  149.97
     31.6500	  482.00	  504.16	 -636.91	  149.97
     31.7000	  492.00	  519.35	 -642.10	  149.97
     31.7500	  508.00	  522.10	 -628.85	  149.97
     31.8000	  494.00	  511.40	 -632.15	  149.97
     31.8500	  475.00	  488.06	 -627.81	  149.98
     31.9000	  439.00	  454.80	 -630.55	  149.98
     31.9500	  413.00	  415.65	 -617.40	  149.98
     32.0000	  368.00	  374.94	 -621.69	  149.98
     32.0500	  331.00	  336.43	 -620.18	  149.98
     32.1000	  299.00	  302.89	 -618.64	  149.98
     32.1500	  286.00	  275.82	 -604.57	  149.99
     32.2000	  262.00	  255.60	 -608.35	  149.99
     32.2500	  241.00	  241.75	 -615.50	  149.99
     32.3000	  238.00	  233.32	 -610.07	  149.99
     32.3500	  252.00	  229.32	 -592.07	  149.99
     32.4000	  267.00	  229.05	 -576.80	  150.00
     32.4500	  276.00	  232.30	 -571.05	  150.00
     32.5000	  278.00	  239.49	 -576.24	  150.00
     32.5500	  300.00	  251.68	 -566.43	  150.00
     32.6000	  325.00	  270.47	 -560.22	  150.00
     32.6500	  336.00	  297.77	 -576.52	  150.00
     32.7000	  359.00	  335.58	 -591.33	  150.01
     32.7500	  405.00	  385.22	 -594.97	  150.01
     32.8000	  458.00	  446.93	 -603.68	  150.01
     32.8500	  501.00	  519.31	 -633.06	  150.01
     32.9000	  564.00	  599.12	 -649.87	  150.01
     32.9500	  640.00	  681.29	 -656.04	  150.02
     33.0000	  719.00	  759.43	 -655.18	  150.02
     33.0500	  783.00	  826.41	 -658.16	  150.02
     33.1000	  837.00	  875.11	 -652.86	  150.02
     33.1500	  851.00	  899.28	 -663.03	  150.02
     33.2000	  866.00	  894.61	 -643.36	  150.02
     33.2500	  828.00	  860.15	 -646.90	  150.03
     33.3000	  763.00	  799.34	 -651.09	  150.03
     33.3500	  697.00	  719.59	 -637.34	  150.03
     33.4000	  634.00	  630.34	 -611.09	  150.03
     33.4500	  541.00	  540.89	 -614.64	  150.03
     33.5000	  465.00	  459.85	 -609.60	  150.04
     33.5500	  391.00	  390.01	 -613.76	  150.04
     33.6000	  351.00	  334.69	 -598.44	  150.04
     33.6500	  301.00	  293.83	 -607.58	  150.04
     33.7000	  284.00	  265.80	 -596.55	  150.04
     33.7500	  260.00	  248.26	 -603.01	  150.05
     33.8000	  248.00	  238.89	 -605.64	  150.05
     33.8500	  257.00	  235.86	 -593.61	  150.05
     33.9000	  242.00	  237.96	 -610.71	  150.05
     33.9500	  246.00	  244.46	 -613.21	  150.05
     34.0000	  263.00	  254.88	 -606.63	  150.05
     34.0500	  271.00	  268.73	 -612.48	  150.06
     34.1000	  281.00	  285.26	 -619.01	  150.06
     34.1500	  302.00	  303.42	 -616.17	  150.06
     34.2000	  309.00	  321.68	 -627.43	  150.06
     34.2500	  335.00	  338.65	 -618.40	  150.06
     34.3000	  342.00	  352.50	 -625.25	  150.07
     34.3500	  345.00	  361.60	 -631.35	  150.07
     34.4000	  356.00	  364.61	 -623.36	  150.07
     34.4500	  351.00	  360.81	 -624.56	  150.07
     34.5000	  341.00	  350.35	 -624.10	  150.07
     34.5500	  334.00	  334.44	 -615.19	  150.08
     34.6000	  321.00	  315.04	 -608.79	  150.08
     34.6500	  286.00	  294.37	 -623.12	  150.08
     34.7000	  268.00	  274.41	 -621.16	  150.08
     34.7500	  256.00	  256.65	 -615.40	  150.08
     34.8000	  238.00	  241.95	 -618.70	  150.08
     34.8500	  229.00	  230.54	 -616.29	  150.09
     34.9000	  218.00	  222.22	 -618.97	  150.09
     34.9500	  223.00	  216.47	 -608.22	  150.09
     35.0000	  216.00	  212.68	 -611.43	  150.09
     35.0500	  203.00	  210.28	 -622.03	  150.09
     35.1000	  203.00	  208.81	 -620.56	  150.10
     35.1500	  194.00	  207.94	 -628.69	  150.10
     35.2000	  205.00	  207.46	 -617.21	  150.10
     35.2500	  196.00	  207.24	 -625.99	  150.10
     35.3000	  193.00	  207.18	 -628.93	  150.10
     35.3500	  206.00	  207.25	 -616.00	  150.11
     35.4000	  201.00	  207.40	 -621.15	  150.11
     35.4500	  201.00	  207.32	 -621.07	  150.11
     35.5000	  201.00	  207.62	 -621.37	  150.11
     35.5500	  200.00	  207.99	 -622.74	  150.11
     35.6000	  194.00	  208.43	 -629.18	  150.12
     35.6500	  196.00	  208.96	 -627.71	  150.12
     35.7000	  203.00	  209.59	 -621.34	  150.12
     35.7500	  195.00	  210.36	 -630.11	  150.12
     35.8000	  196.00	  211.29	 -630.04	  150.13
     35.8500	  211.00	  212.43	 -616.18	  150.13
     35.9000	  216.00	  213.81	 -612.56	  150.13
     35.9500	  207.00	  215.52	 -623.27	  150.13
     36.0000	  215.00	  217.67	 -617.42	  150.13
     36.0500	  221.00	  220.44	 -614.19	  150.14
     36.1000	  237.00	  224.16	 -601.91	  150.14
     36.1500	  248.00	  229.38	 -596.13	  150.14
     36.2000	  261.00	  237.00	 -590.75	  150.14
     36.2500	  279.00	  248.44	 -584.19	  150.14
     36.3000	  319.00	  265.74	 -561.49	  150.15
     36.3500	  337.00	  291.62	 -569.37	  150.15
     36.4000	  364.00	  329.30	 -580.05	  150.15
     36.4500	  423.00	  382.10	 -573.85	  150.15
     36.5000	  489.00	  452.71	 -578.46	  150.16
     36.5500	  557.00	  542.30	 -600.05	  150.16
     36.6000	  630.00	  649.63	 -634.38	  150.16
     36.6500	  729.00	  770.53	 -656.28	  150.16
     36.7000	  822.00	  897.76	 -690.51	  150.17
     36.7500	  943.00	 1021.62	 -693.37	  150.17
     36.8000	 1059.00	 1130.83	 -686.58	  150.17
     36.8500	 1196.00	 1213.06	 -631.81	  150.17
     36.9000	 1235.00	 1259.05	 -638.80	  150.17
     36.9500	 1220.00	 1261.42	 -656.17	  150.18
     37.0000	 1209.00	 1215.33	 -621.08	  150.18
     37.0500	 1128.00	 1126.56	 -613.31	  150.18
     37.1000	 1001.00	 1006.51	 -620.26	  150.18
     37.1500	  864.00	  870.12	 -620.87	  150.19
     37.2000	  729.00	  732.24	 -617.99	  150.19
     37.2500	  601.00	  604.82	 -618.57	  150.19
     37.3000	  496.00	  495.72	 -614.47	  150.19
     37.3500	  418.00	  408.47	 -605.22	  150.20
     37.4000	  355.00	  342.88	 -602.63	  150.20
     37.4500	  313.00	  296.24	 -597.99	  150.20
     37.5000	  263.00	  264.61	 -616.36	  150.20
     37.5500	  246.00	  243.94	 -612.69	  150.21
     37.6000	  226.00	  230.80	 -619.55	  150.21
     37.6500	  214.00	  222.59	 -623.34	  150.21
     37.7000	  222.00	  217.51	 -610.26	  150.21
     37.7500	  222.00	  214.41	 -607.16	  150.22
     37.8000	  211.00	  212.55	 -616.30	  150.22
     37.8500	  211.00	  211.46	 -615.21	  150.22
     37.9000	  202.00	  210.82	 -623.57	  150.22
     37.9500	  198.00	  210.44	 -627.19	  150.23
     38.0000	  192.00	  210.71	 -633.46	  150.23
     38.0500	  193.00	  210.37	 -632.12	  150.23
     38.1000	  196.00	  210.20	 -628.95	  150.24
     38.1500	  201.00	  210.22	 -623.97	  150.24
     38.2000	  203.00	  210.05	 -621.80	  150.24
     38.2500	  203.00	  209.87	 -621.62	  150.24
     38.3000	  201.00	  209.69	 -623.44	  150.25
     38.3500	  198.00	  209.53	 -626.28	  150.25
     38.4000	  196.00	  209.38	 -628.13	  150.25
     38.4500	  206.00	  209.25	 -618.00	  150.25
     38.5000	  210.00	  209.15	 -613.90	  150.26
     38.5500	  197.00	  209.08	 -626.83	  150.26
     38.6000	  204.00	  209.05	 -619.80	  150.26
     38.6500	  200.00	  209.07	 -623.82	  150.27
     38.7000	  205.00	  209.12	 -618.87	  150.27
     38.7500	  196.00	  209.22	 -627.97	  150.27
     38.8000	  195.00	  209.38	 -629.13	  150.28
     38.8500	  205.00	  209.59	 -619.34	  150.28
     38.9000	  204.00	  209.87	 -620.62	  150.28
     38.9500	  200.00	  210.22	 -624.97	  150.28
     39.0000	  203.00	  210.66	 -622.41	  150.29
     39.0500	  208.00	  211.21	 -617.96	  150.29
     39.1000	  207.00	  211.87	 -619.62	  150.29
     39.1500	  202.00	  212.68	 -625.43	  150.30
     39.2000	  203.00	  213.67	 -625.42	  150.30
     39.2500	  198.00	  214.87	 -631.62	  150.30
     39.3000	  204.00	  216.33	 -627.08	  150.31
     39.3500	  210.00	  218.14	 -622.89	  150.31
     39.4000	  216.00	  220.40	 -619.15	  150.31
     39.4500	  210.00	  223.29	 -628.04	  150.32
     39.5000	  229.00	  227.16	 -612.91	  150.32
     39.5500	  239.00	  232.57	 -608.32	  150.32
     39.6000	  247.00	  240.48	 -608.23	  150.33
     39.6500	  278.00	  252.35	 -589.10	  150.33
     39.7000	  302.00	  270.36	 -583.11	  150.33
     39.7500	  324.00	  297.35	 -588.10	  150.34
     39.8000	  371.00	  336.74	 -580.49	  150.34
     39.8500	  420.00	  391.98	 -586.73	  150.34
     39.9000	  465.00	  465.84	 -615.59	  150.35
     39.9500	  538.00	  559.40	 -636.15	  150.35
     40.0000	  630.00	  671.12	 -655.87	  150.35
     40.0500	  739.00	  796.30	 -672.05	  150.36
     40.1000	  851.00	  926.99	 -690.74	  150.36
     40.1500	  976.00	 1052.69	 -691.44	  150.36
     40.2000	 1076.00	 1161.27	 -700.02	  150.37
     40.2500	 1161.00	 1240.39	 -694.14	  150.37
     40.3000	 1222.00	 1279.06	 -671.81	  150.37
     40.3500	 1227.00	 1269.95	 -657.70	  150.38
     40.4000	 1187.00	 1212.20	 -639.95	  150.38
     40.4500	 1096.00	 1113.01	 -631.76	  150.38
     40.5000	  964.00	  985.03	 -635.78	  150.39
     40.5500	  833.00	  846.75	 -628.50	  150.39
     40.6000	  708.00	  712.12	 -618.87	  150.40
     40.6500	  587.00	  592.65	 -620.40	  150.40
     40.7000	  512.00	  495.68	 -598.43	  150.40
     40.7500	  436.00	  424.49	 -603.24	  150.41
     40.8000	  391.00	  379.31	 -603.06	  150.41
     40.8500	  384.00	  358.63	 -589.38	  150.41
     40.9000	  370.00	  360.21	 -604.96	  150.42
     40.9500	  391.00	  381.76	 -605.51	  150.42
     41.0000	  419.00	  420.92	 -616.67	  150.43
     41.0500	  448.00	  474.89	 -641.64	  150.43
     41.1000	  490.00	  539.95	 -664.70	  150.43
     41.1500	  567.00	  611.23	 -658.98	  150.44
     41.2000	  626.00	  682.64	 -671.39	  150.44
     41.2500	  687.00	  747.23	 -674.98	  150.45
     41.3000	  735.00	  797.77	 -677.52	  150.45
     41.3500	  780.00	  827.61	 -662.36	  150.45
     41.4000	  782.00	  832.03	 -664.78	  150.46
     41.4500	  745.00	  809.66	 -679.41	  150.46
     41.5000	  721.00	  763.15	 -656.90	  150.47
     41.5500	  662.00	  698.36	 -651.11	  150.47
     41.6000	  595.00	  622.91	 -642.66	  150.47
     41.6500	  527.00	  544.60	 -632.35	  150.48
     41.7000	  446.00	  470.21	 -638.96	  150.48
     41.7500	  393.00	  404.56	 -626.31	  150.49
     41.8000	  335.00	  350.18	 -629.93	  150.49
     41.8500	  301.00	  307.61	 -621.36	  150.50
     41.9000	  276.00	  275.88	 -614.63	  150.50
     41.9500	  251.00	  253.26	 -617.01	  150.51
     42.0000	  242.00	  237.72	 -610.47	  150.51
     42.0500	  229.00	  227.38	 -613.13	  150.51
     42.1000	  209.00	  220.70	 -626.45	  150.52
     42.1500	  215.00	  216.51	 -616.26	  150.52
     42.2000	  218.00	  213.99	 -610.74	  150.53
     42.2500	  214.00	  212.59	 -613.34	  150.53
     42.3000	  209.00	  211.95	 -617.70	  150.54
     42.3500	  208.00	  211.80	 -618.55	  150.54
     42.4000	  212.00	  211.98	 -614.73	  150.55
     42.4500	  210.00	  212.35	 -617.10	  150.55
     42.5000	  209.00	  212.77	 -618.52	  150.56
     42.5500	  210.00	  213.14	 -617.89	  150.56
     42.6000	  205.00	  213.35	 -623.10	  150.56
     42.6500	  209.00	  213.33	 -619.08	  150.57
     42.7000	  211.00	  213.02	 -616.77	  150.57
     42.7500	  211.00	  212.39	 -616.14	  150.58
     42.8000	  216.00	  211.48	 -610.23	  150.58
     42.8500	  205.00	  210.37	 -620.12	  150.59
     42.9000	  204.00	  209.18	 -619.93	  150.59
     42.9500	  202.00	  208.00	 -620.75	  150.60
     43.0000	  201.00	  206.92	 -620.67	  150.60
     43.0500	  200.00	  205.97	 -620.72	  150.61
     43.1000	  207.00	  205.18	 -612.93	  150.61
     43.1500	  205.00	  204.55	 -614.30	  150.62
     43.2000	  202.00	  204.06	 -616.81	  150.62
     43.2500	  209.00	  203.67	 -609.42	  150.63
     43.3000	  202.00	  204.16	 -616.91	  150.63
     43.3500	  203.00	  203.94	 -615.69	  150.64
     43.4000	  206.00	  204.00	 -612.75	  150.64
     43.4500	  206.00	  203.85	 -612.60	  150.65
     43.5000	  200.00	  203.73	 -618.48	  150.66
     43.5500	  194.00	  203.63	 -624.38	  150.66
     43.6000	  199.00	  203.55	 -619.30	  150.67
     43.6500	  204.00	  203.47	 -614.22	  150.67
     43.7000	  205.00	  203.41	 -613.16	  150.68
     43.7500	  210.00	  203.35	 -608.10	  150.68
     43.8000	  207.00	  203.30	 -611.05	  150.69
     43.8500	  205.00	  202.14	 -611.89	  150.69
     43.9000	  210.00	  202.14	 -606.89	  150.70
     43.9500	  204.00	  202.15	 -612.90	  150.70
     44.0000	  203.00	  202.16	 -613.91	  150.71
     44.0500	  202.00	  202.18	 -614.93	  150.72
     44.1000	  205.00	  202.20	 -611.95	  150.72
     44.1500	  201.00	  202.24	 -615.99	  150.73
     44.2000	  201.00	  202.28	 -616.03	  150.73
     44.2500	  207.00	  202.32	 -610.07	  150.74
     44.3000	  197.00	  202.37	 -620.12	  150.74
     44.3500	  198.00	  202.43	 -619.18	  150.75
     44.4000	  203.00	  202.50	 -614.25	  150.76
     44.4500	  209.00	  202.58	 -608.33	  150.76
     44.5000	  209.00	  202.94	 -608.69	  150.77
     44.5500	  208.00	  203.04	 -609.79	  150.77
     44.6000	  204.00	  203.16	 -613.91	  150.78
     44.6500	  209.00	  203.28	 -609.03	  150.79
     44.7000	  199.00	  203.42	 -619.17	  150.79
     44.7500	  204.00	  203.57	 -614.32	  150.80
     44.8000	  206.00	  203.74	 -612.49	  150.80
     44.8500	  201.00	  203.41	 -617.16	  150.81
     44.9000	  205.00	  203.62	 -613.37	  150.82
     44.9500	  202.00	  203.86	 -616.61	  150.82
     45.0000	  204.00	  203.94	 -614.69	  150.83
     45.0500	  198.00	  204.22	 -620.97	  150.83
     45.1000	  198.00	  204.54	 -621.29	  150.84
     45.1500	  213.00	  204.90	 -606.65	  150.85
     45.2000	  210.00	  205.30	 -610.05	  150.85
     45.2500	  212.00	  205.76	 -608.51	  150.86
     45.3000	  214.00	  206.28	 -607.03	  150.87
     45.3500	  215.00	  206.88	 -606.63	  150.87
     45.4000	  217.00	  207.57	 -605.32	  150.88
     45.4500	  210.00	  208.39	 -613.14	  150.89
     45.5000	  214.00	  209.36	 -610.11	  150.89
     45.5500	  215.00	  210.51	 -610.26	  150.90
     45.6000	  215.00	  211.90	 -611.65	  150.91
     45.6500	  215.00	  213.60	 -613.35	  150.91
     45.7000	  217.00	  215.72	 -613.47	  150.92
     45.7500	  222.00	  218.48	 -611.23	  150.93
     45.8000	  231.00	  222.24	 -605.99	  150.93
     45.8500	  247.00	  227.59	 -595.34	  150.94
     45.9000	  252.00	  235.56	 -598.31	  150.95
     45.9500	  273.00	  247.65	 -589.40	  150.95
     46.0000	  304.00	  266.03	 -576.78	  150.96
     46.0500	  332.00	  293.42	 -576.17	  150.97
     46.1000	  366.00	  332.88	 -581.62	  150.97
     46.1500	  408.00	  387.20	 -593.95	  150.98
     46.2000	  463.00	  458.21	 -609.96	  150.99
     46.2500	  532.00	  545.81	 -628.56	  151.00
     46.3000	  619.00	  647.29	 -643.04	  151.00
     46.3500	  734.00	  757.80	 -638.55	  151.01
     46.4000	  828.00	  867.41	 -654.16	  151.02
     46.4500	  944.00	  966.53	 -637.28	  151.02
     46.5000	 1003.00	 1043.90	 -655.65	  151.03
     46.5500	 1055.00	 1088.93	 -648.68	  151.04
     46.6000	 1070.00	 1093.91	 -638.66	  151.05
     46.6500	 1018.00	 1056.71	 -653.46	  151.05
     46.7000	  944.00	  982.16	 -652.91	  151.06
     46.7500	  833.00	  880.86	 -662.61	  151.07
     46.8000	  725.00	  766.19	 -655.94	  151.08
     46.8500	  633.00	  650.99	 -632.74	  151.08
     46.9000	  507.00	  545.45	 -653.20	  151.09
     46.9500	  445.00	  455.89	 -625.64	  151.10
     47.0000	  379.00	  384.97	 -620.72	  151.11
     47.0500	  347.00	  332.41	 -600.16	  151.11
     47.1000	  316.00	  296.15	 -594.90	  151.12
     47.1500	  282.00	  273.52	 -606.27	  151.13
     47.2000	  267.00	  262.01	 -609.76	  151.14
     47.2500	  269.00	  259.73	 -605.48	  151.15
     47.3000	  281.00	  266.01	 -599.76	  151.15
     47.3500	  288.00	  278.92	 -605.67	  151.16
     47.4000	  300.00	  298.18	 -612.93	  151.17
     47.4500	  327.00	  322.63	 -610.38	  151.18
     47.5000	  346.00	  350.53	 -619.28	  151.19
     47.5500	  380.00	  379.48	 -614.23	  151.19
     47.6000	  400.00	  406.57	 -621.32	  151.20
     47.6500	  430.00	  428.62	 -613.37	  151.21
     47.7000	  453.00	  442.55	 -604.30	  151.22
     47.7500	  459.00	  445.88	 -601.63	  151.23
     47.8000	  451.00	  437.50	 -601.25	  151.23
     47.8500	  427.00	  418.31	 -606.06	  151.24
     47.9000	  402.00	  391.21	 -603.96	  151.25
     47.9500	  375.00	  360.05	 -599.80	  151.26
     48.0000	  344.00	  328.59	 -599.34	  151.27
     48.0500	  309.00	  299.73	 -605.48	  151.28
     48.1000	  277.00	  275.28	 -613.03	  151.28
     48.1500	  265.00	  255.94	 -605.69	  151.29
     48.2000	  246.00	  241.58	 -610.33	  151.30
     48.2500	  246.00	  231.49	 -600.24	  151.31
     48.3000	  230.00	  224.76	 -609.51	  151.32
     48.3500	  223.00	  220.51	 -612.26	  151.33
     48.4000	  227.00	  219.18	 -606.93	  151.34
     48.4500	  225.00	  217.93	 -607.68	  151.34
     48.5000	  217.00	  217.52	 -615.27	  151.35
     48.5500	  217.00	  217.74	 -615.49	  151.36
     48.6000	  223.00	  218.46	 -610.21	  151.37
     48.6500	  223.00	  219.66	 -611.41	  151.38
     48.7000	  220.00	  221.39	 -616.14	  151.39
     48.7500	  223.00	  223.85	 -615.60	  151.40
     48.8000	  226.00	  227.42	 -616.17	  151.41
     48.8500	  248.00	  232.80	 -599.55	  151.42
     48.9000	  258.00	  241.07	 -597.82	  151.43
     48.9500	  274.00	  253.84	 -594.59	  151.43
     49.0000	  297.00	  273.19	 -590.94	  151.44
     49.0500	  324.00	  301.56	 -592.31	  151.45
     49.1000	  355.00	  341.30	 -601.05	  151.46
     49.1500	  393.00	  395.95	 -617.70	  151.47
     49.2000	  458.00	  461.84	 -618.59	  151.48
     49.2500	  528.00	  538.86	 -625.61	  151.49
     49.3000	  589.00	  622.59	 -648.34	  151.50
     49.3500	  688.00	  706.38	 -633.13	  151.51
     49.4000	  781.00	  781.89	 -615.64	  151.52
     49.4500	  840.00	  840.09	 -614.84	  151.53
     49.5000	  876.00	  872.48	 -611.23	  151.54
     49.5500	  874.00	  872.95	 -613.70	  151.55
     49.6000	  832.00	  840.11	 -622.86	  151.56
     49.6500	  765.00	  778.91	 -628.66	  151.57
     49.7000	  682.00	  699.26	 -632.01	  151.58
     49.7500	  613.00	  612.91	 -614.66	  151.59
     49.8000	  524.00	  530.45	 -621.20	  151.60
     49.8500	  455.00	  459.91	 -619.66	  151.61
     49.9000	  408.00	  406.38	 -613.13	  151.62
     49.9500	  384.00	  371.55	 -602.30	  151.63
     50.0000	  366.00	  357.83	 -606.58	  151.64
     50.0500	  375.00	  362.96	 -602.71	  151.65
     50.1000	  392.00	  385.33	 -608.08	  151.66
     50.1500	  426.00	  422.22	 -610.97	  151.67
     50.2000	  470.00	  469.81	 -614.56	  151.68
     50.2500	  519.00	  523.15	 -618.90	  151.69
     50.3000	  588.00	  576.31	 -603.06	  151.70
     50.3500	  639.00	  622.86	 -598.61	  151.71
     50.4000	  681.00	  655.93	 -589.68	  151.72
     50.4500	  704.00	  670.02	 -580.77	  151.73
     50.5000	  693.00	  661.83	 -583.58	  151.74
     50.5500	  650.00	  631.93	 -596.68	  151.75
     50.6000	  600.00	  585.18	 -599.93	  151.76
     50.6500	  540.00	  529.05	 -603.80	  151.77
     50.7000	  478.00	  471.31	 -608.06	  151.78
     50.7500	  412.00	  418.36	 -621.11	  151.79
     50.8000	  376.00	  374.67	 -613.42	  151.80
     50.8500	  345.00	  342.87	 -612.62	  151.81
     50.9000	  330.00	  324.32	 -609.07	  151.82
     50.9500	  337.00	  319.92	 -597.67	  151.83
     51.0000	  350.00	  330.80	 -595.55	  151.85
     51.0500	  383.00	  358.69	 -590.44	  151.86
     51.1000	  426.00	  405.43	 -594.18	  151.87
     51.1500	  493.00	  473.29	 -595.04	  151.88
     51.2000	  571.00	  562.15	 -605.90	  151.89
     51.2500	  676.00	  669.55	 -608.30	  151.90
     51.3000	  803.00	  789.61	 -601.36	  151.91
     51.3500	  920.00	  913.11	 -607.86	  151.92
     51.4000	 1071.00	 1028.14	 -571.89	  151.93
     51.4500	 1183.00	 1121.48	 -553.23	  151.95
     51.5000	 1247.00	 1180.36	 -548.11	  151.96
     51.5500	 1255.00	 1195.20	 -554.95	  151.97
     51.6000	 1251.00	 1163.43	 -527.18	  151.98
     51.6500	 1183.00	 1092.46	 -524.21	  151.99
     51.7000	 1068.00	  998.79	 -545.54	  152.00
     51.7500	  945.00	  903.43	 -573.18	  152.01
     51.8000	  861.00	  827.06	 -580.81	  152.03
     51.8500	  811.00	  788.21	 -591.96	  152.04
     51.9000	  813.00	  797.79	 -599.54	  152.05
     51.9500	  872.00	  859.40	 -602.15	  152.06
     52.0000	  969.00	  972.44	 -618.19	  152.07
     52.0500	 1120.00	 1127.34	 -622.09	  152.08
     52.1000	 1309.00	 1307.76	 -613.51	  152.10
     52.1500	 1527.00	 1492.14	 -579.89	  152.11
     52.2000	 1706.00	 1655.92	 -564.67	  152.12
     52.2500	 1856.00	 1774.12	 -532.87	  152.13
     52.3000	 1888.00	 1824.95	 -551.70	  152.14
     52.3500	 1837.00	 1795.16	 -572.91	  152.16
     52.4000	 1713.00	 1686.05	 -587.80	  152.17
     52.4500	 1500.00	 1515.08	 -629.83	  152.18
     52.5000	 1289.00	 1309.83	 -635.58	  152.19
     52.5500	 1103.00	 1099.05	 -610.80	  152.20
     52.6000	  904.00	  906.41	 -617.16	  152.22
     52.6500	  749.00	  747.95	 -613.70	  152.23
     52.7000	  627.00	  631.89	 -619.64	  152.24
     52.7500	  568.00	  559.76	 -606.51	  152.25
     52.8000	  551.00	  528.22	 -591.97	  152.27
     52.8500	  560.00	  530.36	 -585.11	  152.28
     52.9000	  586.00	  560.12	 -588.87	  152.29
     52.9500	  634.00	  606.15	 -586.90	  152.30
     53.0000	  691.00	  660.09	 -583.84	  152.32
     53.0500	  751.00	  713.92	 -577.67	  152.33
     53.1000	  799.00	  756.48	 -572.23	  152.34
     53.1500	  792.00	  781.48	 -604.23	  152.35
     53.2000	  820.00	  784.17	 -578.92	  152.37
     53.2500	  774.00	  764.12	 -604.87	  152.38
     53.3000	  736.00	  725.39	 -604.14	  152.39
     53.3500	  680.00	  674.71	 -609.46	  152.41
     53.4000	  627.00	  618.79	 -606.54	  152.42
     53.4500	  562.00	  562.65	 -615.40	  152.43
     53.5000	  514.00	  509.24	 -609.99	  152.44
     53.5500	  459.00	  459.98	 -615.73	  152.46
     53.6000	  424.00	  415.66	 -606.41	  152.47
     53.6500	  362.00	  376.87	 -629.62	  152.48
     53.7000	  333.00	  344.05	 -625.80	  152.50
     53.7500	  318.00	  317.34	 -614.09	  152.51
     53.8000	  300.00	  296.08	 -610.83	  152.52
     53.8500	  287.00	  280.89	 -608.64	  152.54
     53.9000	  265.00	  270.59	 -620.34	  152.55
     53.9500	  266.00	  264.41	 -613.16	  152.56
     54.0000	  262.00	  261.59	 -614.34	  152.58
     54.0500	  263.00	  261.51	 -613.26	  152.59
     54.1000	  255.00	  263.81	 -623.56	  152.61
     54.1500	  270.00	  268.47	 -613.22	  152.62
     54.2000	  278.00	  275.98	 -612.73	  152.63
     54.2500	  289.00	  287.55	 -613.30	  152.65
     54.3000	  317.00	  305.49	 -603.24	  152.66
     54.3500	  343.00	  333.58	 -605.33	  152.67
     54.4000	  400.00	  377.42	 -592.17	  152.69
     54.4500	  468.00	  444.46	 -591.21	  152.70
     54.5000	  561.00	  543.28	 -597.03	  152.72
     54.5500	  695.00	  681.98	 -601.73	  152.73
     54.6000	  873.00	  865.85	 -607.60	  152.74
     54.6500	 1100.00	 1094.39	 -609.14	  152.76
     54.7000	 1372.00	 1359.19	 -601.94	  152.77
     54.7500	 1660.00	 1642.87	 -597.62	  152.79
     54.8000	 1954.00	 1920.87	 -581.62	  152.80
     54.8500	 2224.00	 2159.33	 -550.08	  152.81
     54.9000	 2400.00	 2328.63	 -543.38	  152.83
     54.9500	 2459.00	 2398.87	 -554.62	  152.84
     55.0000	 2435.00	 2353.57	 -533.32	  152.86
     55.0500	 2245.00	 2197.07	 -566.82	  152.87
     55.1000	 1986.00	 1955.77	 -584.52	  152.89
     55.1500	 1671.00	 1668.92	 -612.67	  152.90
     55.2000	 1358.00	 1375.72	 -632.47	  152.92
     55.2500	 1086.00	 1107.03	 -635.78	  152.93
     55.3000	  868.00	  882.44	 -629.19	  152.95
     55.3500	  682.00	  710.90	 -643.65	  152.96
     55.4000	  578.00	  593.52	 -630.27	  152.98
     55.4500	  521.00	  527.13	 -620.88	  152.99
     55.5000	  512.00	  507.60	 -610.35	  153.01
     55.5500	  537.00	  531.93	 -609.68	  153.02
     55.6000	  600.00	  596.80	 -611.55	  153.04
     55.6500	  704.00	  705.21	 -615.96	  153.05
     55.7000	  855.00	  853.20	 -612.95	  153.07
     55.7500	 1032.00	 1035.56	 -618.31	  153.08
     55.8000	 1232.00	 1242.33	 -625.08	  153.10
     55.8500	 1466.00	 1458.07	 -606.82	  153.11
     55.9000	 1693.00	 1662.35	 -584.10	  153.13
     55.9500	 1866.00	 1831.89	 -580.64	  153.14
     56.0000	 1966.00	 1944.31	 -593.06	  153.16
     56.0500	 2024.00	 1983.07	 -573.82	  153.17
     56.1000	 2016.00	 1941.40	 -540.15	  153.19
     56.1500	 1846.00	 1823.57	 -592.32	  153.20
     56.2000	 1667.00	 1644.22	 -591.97	  153.22
     56.2500	 1429.00	 1426.28	 -612.03	  153.23
     56.3000	 1179.00	 1196.01	 -631.76	  153.25
     56.3500	  950.00	  976.54	 -641.29	  153.27
     56.4000	  763.00	  783.52	 -635.27	  153.28
     56.4500	  599.00	  625.31	 -641.06	  153.30
     56.5000	  484.00	  503.44	 -634.19	  153.31
     56.5500	  404.00	  414.28	 -625.03	  153.33
     56.6000	  351.00	  352.03	 -615.78	  153.35
     56.6500	  304.00	  310.30	 -621.05	  153.36
     56.7000	  284.00	  283.24	 -613.99	  153.38
     56.7500	  273.00	  266.03	 -607.78	  153.39
     56.8000	  259.00	  255.57	 -611.32	  153.41
     56.8500	  251.00	  249.33	 -613.08	  153.43
     56.9000	  251.00	  245.78	 -609.53	  153.44
     56.9500	  252.00	  243.95	 -606.70	  153.46
     57.0000	  245.00	  243.31	 -613.06	  153.48
     57.0500	  259.00	  243.64	 -599.39	  153.49
     57.1000	  250.00	  245.11	 -609.86	  153.51
     57.1500	  253.00	  248.00	 -609.75	  153.52
     57.2000	  256.00	  253.15	 -611.90	  153.54
     57.2500	  264.00	  261.95	 -612.70	  153.56
     57.3000	  285.00	  276.43	 -606.18	  153.57
     57.3500	  301.00	  299.23	 -612.98	  153.59
     57.4000	  346.00	  333.08	 -601.83	  153.61
     57.4500	  390.00	  380.56	 -605.31	  153.62
     57.5000	  458.00	  442.92	 -599.67	  153.64
     57.5500	  528.00	  519.20	 -605.95	  153.66
     57.6000	  624.00	  605.62	 -596.37	  153.68
     57.6500	  733.00	  695.34	 -577.09	  153.69
     57.7000	  829.00	  779.08	 -564.83	  153.71
     57.7500	  916.00	  846.12	 -544.87	  153.73
     57.8000	  988.00	  885.80	 -512.55	  153.74
     57.8500	  994.00	  889.88	 -510.63	  153.76
     57.9000	  929.00	  855.83	 -541.58	  153.78
     57.9500	  843.00	  789.06	 -560.81	  153.79
     58.0000	  742.00	  701.24	 -573.99	  153.81
     58.0500	  638.00	  605.81	 -582.56	  153.83
     58.1000	  527.00	  514.17	 -601.92	  153.85
     58.1500	  434.00	  433.99	 -614.74	  153.86
     58.2000	  377.00	  366.35	 -604.10	  153.88
     58.2500	  320.00	  317.10	 -611.85	  153.90
     58.3000	  282.00	  281.77	 -614.52	  153.92
     58.3500	  273.00	  257.57	 -599.32	  153.93
     58.4000	  256.00	  241.61	 -600.36	  153.95
     58.4500	  243.00	  231.37	 -603.12	  153.97
     58.5000	  240.00	  224.93	 -599.68	  153.99
     58.5500	  240.00	  220.93	 -595.68	  154.01
     58.6000	  230.00	  218.44	 -603.19	  154.02
     58.6500	  220.00	  216.86	 -611.61	  154.04
     58.7000	  230.00	  215.81	 -600.56	  154.06
     58.7500	  227.00	  215.04	 -602.79	  154.08
     58.8000	  224.00	  214.44	 -605.19	  154.10
     58.8500	  219.00	  213.93	 -609.68	  154.11
     58.9000	  227.00	  213.47	 -601.22	  154.13
     58.9500	  227.00	  213.05	 -600.80	  154.15
     59.0000	  224.00	  212.66	 -603.41	  154.17
     59.0500	  222.00	  212.32	 -605.07	  154.19
     59.1000	  223.00	  212.03	 -603.78	  154.21
     59.1500	  217.00	  211.56	 -609.31	  154.22
     59.2000	  213.00	  210.47	 -612.22	  154.24
     59.2500	  216.00	  210.39	 -609.14	  154.26
     59.3000	  219.00	  210.38	 -606.13	  154.28
     59.3500	  219.00	  209.30	 -605.05	  154.30
     59.4000	  218.00	  209.58	 -606.33	  154.32
     59.4500	  220.00	  210.09	 -604.84	  154.34
     59.5000	  220.00	  210.95	 -605.70	  154.35
     59.5500	  220.00	  212.36	 -607.11	  154.37
     59.6000	  223.00	  214.65	 -606.40	  154.39
     59.6500	  233.00	  218.20	 -599.95	  154.41
     59.7000	  237.00	  223.48	 -601.23	  154.43
     59.7500	  249.00	  230.94	 -596.69	  154.45
     59.8000	  258.00	  240.89	 -597.64	  154.47
     59.8500	  261.00	  253.35	 -607.10	  154.49
     59.9000	  283.00	  267.97	 -599.72	  154.51
     59.9500	  304.00	  283.96	 -594.71	  154.53
     60.0000	  324.00	  300.09	 -590.84	  154.54
     60.0500	  347.00	  314.82	 -582.57	  154.56
     60.1000	  353.00	  326.41	 -588.16	  154.58
     60.1500	  359.00	  333.30	 -589.05	  154.60
     60.2000	  363.00	  334.63	 -586.38	  154.62
     60.2500	  352.00	  330.54	 -593.29	  154.64
     60.3000	  341.00	  321.92	 -595.67	  154.66
     60.3500	  330.00	  309.93	 -594.68	  154.68
     60.4000	  308.00	  295.71	 -602.46	  154.70
     60.4500	  291.00	  280.47	 -604.22	  154.72
     60.5000	  271.00	  265.44	 -609.19	  154.74
     60.5500	  254.00	  251.70	 -612.45	  154.76
     60.6000	  245.00	  239.96	 -609.71	  154.78
     60.6500	  245.00	  230.53	 -600.28	  154.80
     60.7000	  239.00	  223.44	 -599.19	  154.82
     60.7500	  228.00	  218.36	 -605.11	  154.84
     60.8000	  217.00	  214.96	 -612.71	  154.86
     60.8500	  217.00	  212.82	 -610.57	  154.88
     60.9000	  218.00	  211.54	 -608.29	  154.90
     60.9500	  223.00	  210.77	 -602.52	  154.92
     61.0000	  207.00	  209.40	 -617.15	  154.94
     61.0500	  218.00	  209.00	 -605.75	  154.96
     61.1000	  222.00	  208.55	 -601.30	  154.98
     61.1500	  215.00	  208.05	 -607.80	  155.00
     61.2000	  210.00	  207.50	 -612.25	  155.02
     61.2500	  216.00	  206.95	 -605.70	  155.04
     61.3000	  213.00	  206.44	 -608.19	  155.06
     61.3500	  212.00	  206.01	 -608.76	  155.08
     61.4000	  215.00	  206.27	 -606.02	  155.10
     61.4500	  212.00	  206.01	 -608.76	  155.12
     61.5000	  214.00	  205.83	 -606.58	  155.14
     61.5500	  211.00	  205.70	 -609.45	  155.17
     61.6000	  214.00	  205.62	 -606.37	  155.19
     61.6500	  217.00	  205.57	 -603.32	  155.21
     61.7000	  205.00	  205.53	 -615.28	  155.23
     61.7500	  207.00	  205.52	 -613.27	  155.25
     61.8000	  213.00	  205.52	 -607.27	  155.27
     61.8500	  208.00	  205.53	 -612.28	  155.29
     61.9000	  211.00	  205.55	 -609.30	  155.31
     61.9500	  205.00	  205.57	 -615.32	  155.33
     62.0000	  214.00	  205.60	 -606.35	  155.35
     62.0500	  213.00	  205.64	 -607.39	  155.38
     62.1000	  212.00	  205.68	 -608.43	  155.40
     62.1500	  212.00	  205.73	 -608.48	  155.42
     62.2000	  213.00	  205.79	 -607.54	  155.44
     62.2500	  207.00	  205.85	 -613.60	  155.46
     62.3000	  203.00	  205.92	 -617.67	  155.48
     62.3500	  211.00	  206.00	 -609.75	  155.50
     62.4000	  211.00	  206.09	 -609.84	  155.53
     62.4500	  214.00	  206.18	 -606.93	  155.55
     62.5000	  214.00	  206.29	 -607.04	  155.57
     62.5500	  207.00	  206.41	 -614.16	  155.59
     62.6000	  203.00	  206.54	 -618.29	  155.61
     62.6500	  212.00	  206.69	 -609.44	  155.64
     62.7000	  212.00	  206.86	 -609.61	  155.66
     62.7500	  214.00	  207.05	 -607.80	  155.68
     62.8000	  213.00	  207.27	 -609.02	  155.70
     62.8500	  202.00	  207.53	 -620.28	  155.72
     62.9000	  210.00	  207.83	 -612.58	  155.75
     62.9500	  211.00	  208.21	 -611.96	  155.77
     63.0000	  211.00	  208.71	 -612.46	  155.79
     63.0500	  214.00	  209.39	 -610.14	  155.81
     63.1000	  221.00	  210.35	 -604.10	  155.83
     63.1500	  217.00	  211.74	 -609.49	  155.86
     63.2000	  212.00	  213.72	 -616.47	  155.88
     63.2500	  214.00	  216.34	 -617.09	  155.90
     63.3000	  219.00	  219.86	 -615.61	  155.92
     63.3500	  223.00	  224.25	 -616.00	  155.95
     63.4000	  225.00	  229.32	 -619.07	  155.97
     63.4500	  227.00	  234.75	 -622.50	  155.99
     63.5000	  235.00	  240.03	 -619.78	  156.01
     63.5500	  240.00	  244.96	 -619.71	  156.04
     63.6000	  243.00	  248.78	 -620.53	  156.06
     63.6500	  252.00	  251.56	 -614.31	  156.08
     63.7000	  249.00	  253.68	 -619.43	  156.11
     63.7500	  249.00	  256.48	 -622.23	  156.13
     63.8000	  255.00	  261.98	 -621.73	  156.15
     63.8500	  262.00	  272.71	 -625.46	  156.17
     63.9000	  282.00	  291.23	 -623.98	  156.20
     63.9500	  308.00	  319.68	 -626.43	  156.22
     64.0000	  351.00	  359.04	 -622.79	  156.24
     64.0500	  398.00	  408.54	 -625.29	  156.27
     64.1000	  470.00	  465.13	 -609.88	  156.29
     64.1500	  525.00	  523.50	 -613.25	  156.31
     64.2000	  596.00	  576.61	 -595.36	  156.34
     64.2500	  646.00	  616.47	 -585.22	  156.36
     64.3000	  681.00	  635.52	 -569.27	  156.38
     64.3500	  665.00	  628.84	 -578.59	  156.41
     64.4000	  615.00	  596.77	 -596.52	  156.43
     64.4500	  563.00	  545.96	 -597.71	  156.45
     64.5000	  484.00	  485.04	 -615.79	  156.48
     64.5500	  421.00	  423.46	 -617.21	  156.50
     64.6000	  364.00	  367.79	 -618.54	  156.53
     64.6500	  317.00	  321.69	 -619.44	  156.55
     64.7000	  289.00	  286.37	 -612.12	  156.57
     64.7500	  261.00	  260.67	 -614.42	  156.60
     64.8000	  245.00	  243.03	 -612.78	  156.62
     64.8500	  233.00	  231.44	 -613.19	  156.64
     64.9000	  228.00	  224.09	 -610.84	  156.67
     64.9500	  219.00	  219.55	 -615.30	  156.69
     65.0000	  219.00	  216.81	 -612.56	  156.72
     65.0500	  217.00	  215.18	 -612.93	  156.74
     65.1000	  216.00	  214.21	 -612.96	  156.77
     65.1500	  221.00	  213.60	 -607.35	  156.79
     65.2000	  215.00	  213.20	 -612.95	  156.81
     65.2500	  215.00	  212.93	 -612.68	  156.84
     65.3000	  210.00	  212.71	 -617.46	  156.86
     65.3500	  212.00	  212.55	 -615.30	  156.89
     65.4000	  212.00	  212.65	 -615.40	  156.91
     65.4500	  204.00	  212.59	 -623.34	  156.94
     65.5000	  209.00	  212.57	 -618.32	  156.96
     65.5500	  206.00	  212.61	 -621.36	  156.99
     65.6000	  216.00	  212.73	 -611.48	  157.01
     65.6500	  207.00	  212.93	 -620.68	  157.04
     65.7000	  214.00	  213.24	 -613.99	  157.06
     65.7500	  207.00	  213.70	 -621.45	  157.08
     65.8000	  209.00	  214.41	 -620.16	  157.11
     65.8500	  218.00	  215.51	 -612.26	  157.13
     65.9000	  215.00	  217.24	 -616.99	  157.16
     65.9500	  222.00	  219.97	 -612.72	  157.18
     66.0000	  226.00	  224.21	 -612.96	  157.21
     66.0500	  230.00	  230.55	 -615.30	  157.23
     66.1000	  239.00	  239.56	 -615.31	  157.26
     66.1500	  249.00	  251.59	 -617.34	  157.29
     66.2000	  263.00	  266.59	 -618.34	  157.31
     66.2500	  275.00	  283.87	 -623.62	  157.34
     66.3000	  292.00	  302.10	 -624.85	  157.36
     66.3500	  317.00	  319.31	 -617.06	  157.39
     66.4000	  323.00	  333.20	 -624.95	  157.41
     66.4500	  341.00	  341.48	 -615.23	  157.44
     66.5000	  350.00	  342.52	 -607.27	  157.46
     66.5500	  330.00	  336.18	 -620.93	  157.49
     66.6000	  320.00	  323.99	 -618.74	  157.51
     66.6500	  307.00	  308.64	 -616.39	  157.54
     66.7000	  284.00	  293.15	 -623.90	  157.57
     66.7500	  275.00	  280.44	 -620.19	  157.59
     66.8000	  265.00	  272.80	 -622.55	  157.62
     66.8500	  269.00	  272.06	 -617.81	  157.64
     66.9000	  275.00	  279.65	 -619.40	  157.67
     66.9500	  292.00	  296.52	 -619.27	  157.70
     67.0000	  311.00	  322.90	 -626.65	  157.72
     67.0500	  338.00	  358.02	 -634.77	  157.75
     67.1000	  387.00	  399.74	 -627.49	  157.77
     67.1500	  413.00	  444.61	 -646.36	  157.80
     67.2000	  463.00	  488.04	 -639.79	  157.83
     67.2500	  510.00	  524.73	 -629.48	  157.85
     67.3000	  534.00	  549.42	 -630.17	  157.88
     67.3500	  559.00	  557.93	 -613.68	  157.91
     67.4000	  539.00	  551.22	 -626.97	  157.93
     67.4500	  533.00	  531.80	 -613.55	  157.96
     67.5000	  500.00	  504.04	 -618.79	  157.98
     67.5500	  471.00	  471.48	 -615.23	  158.01
     67.6000	  455.00	  436.42	 -596.17	  158.04
     67.6500	  410.00	  400.70	 -605.45	  158.06
     67.7000	  373.00	  366.66	 -608.41	  158.09
     67.7500	  342.00	  336.91	 -609.66	  158.12
     67.8000	  307.00	  313.76	 -621.51	  158.14
     67.8500	  288.00	  298.72	 -625.47	  158.17
     67.9000	  286.00	  292.44	 -621.19	  158.20
     67.9500	  281.00	  294.59	 -628.34	  158.23
     68.0000	  292.00	  303.82	 -626.57	  158.25
     68.0500	  291.00	  317.88	 -641.63	  158.28
     68.1000	  312.00	  333.75	 -636.50	  158.31
     68.1500	  326.00	  348.02	 -636.77	  158.33
     68.2000	  336.00	  357.26	 -636.01	  158.36
     68.2500	  346.00	  358.69	 -627.44	  158.39
     68.3000	  341.00	  351.10	 -624.85	  158.42
     68.3500	  327.00	  335.62	 -623.37	  158.44
     68.4000	  305.00	  315.27	 -625.02	  158.47
     68.4500	  277.00	  293.49	 -631.24	  158.50
     68.5000	  267.00	  273.05	 -620.80	  158.52
     68.5500	  249.00	  255.64	 -621.39	  158.55
     68.6000	  229.00	  241.91	 -627.66	  158.58
     68.6500	  221.00	  231.79	 -625.54	  158.61
     68.7000	  220.00	  224.71	 -619.46	  158.63
     68.7500	  217.00	  219.97	 -617.72	  158.66
     68.8000	  211.00	  216.90	 -620.65	  158.69
     68.8500	  204.00	  214.95	 -625.70	  158.72
     68.9000	  203.00	  213.72	 -625.47	  158.75
     68.9500	  220.00	  212.94	 -607.69	  158.77
     69.0000	  217.00	  212.43	 -610.18	  158.80
     69.0500	  217.00	  212.08	 -609.83	  158.83
     69.1000	  214.00	  211.82	 -612.57	  158.86
     69.1500	  205.00	  211.62	 -621.37	  158.89
     69.2000	  205.00	  211.48	 -621.23	  158.91
     69.2500	  211.00	  211.38	 -615.13	  158.94
     69.3000	  206.00	  211.33	 -620.08	  158.97
     69.3500	  208.00	  211.36	 -618.11	  159.00
     69.4000	  201.00	  211.54	 -625.29	  159.03
     69.4500	  208.00	  211.73	 -618.47	  159.05
     69.5000	  214.00	  212.25	 -613.00	  159.08
     69.5500	  212.00	  212.96	 -615.71	  159.11
     69.6000	  206.00	  213.96	 -622.71	  159.14
     69.6500	  216.00	  215.14	 -613.89	  159.17
     69.7000	  219.00	  216.41	 -612.16	  159.20
     69.7500	  215.00	  217.62	 -617.37	  159.23
     69.8000	  217.00	  218.61	 -616.36	  159.25
     69.8500	  211.00	  219.27	 -623.02	  159.28
     69.9000	  214.00	  219.72	 -620.47	  159.31
     69.9500	  215.00	  219.69	 -619.44	  159.34
     70.0000	  224.00	  219.61	 -610.36	  159.37
     70.0500	  217.00	  219.79	 -617.54	  159.40
     70.1000	  215.00	  220.46	 -620.21	  159.43
     70.1500	  218.00	  221.71	 -618.46	  159.46
     70.2000	  218.00	  223.44	 -620.19	  159.48
     70.2500	  228.00	  225.39	 -612.14	  159.51
     70.3000	  227.00	  226.78	 -614.53	  159.54
     70.3500	  228.00	  227.99	 -614.74	  159.57
     70.4000	  225.00	  228.23	 -617.98	  159.60
     70.4500	  219.00	  227.31	 -623.06	  159.63
     70.5000	  216.00	  225.37	 -624.12	  159.66
     70.5500	  219.00	  222.61	 -618.36	  159.69
     70.6000	  218.00	  219.87	 -616.62	  159.72
     70.6500	  214.00	  217.31	 -618.06	  159.75
     70.7000	  212.00	  215.16	 -617.91	  159.78
     70.7500	  221.00	  213.49	 -607.24	  159.81
     70.8000	  214.00	  212.28	 -613.03	  159.84
     70.8500	  208.00	  211.44	 -618.19	  159.87
     70.9000	  204.00	  210.89	 -621.64	  159.90
     70.9500	  209.00	  210.55	 -616.30	  159.92
     71.0000	  209.00	  210.34	 -616.09	  159.95
     71.0500	  208.00	  210.24	 -616.99	  159.98
     71.1000	  212.00	  210.20	 -612.95	  160.01
     71.1500	  213.00	  210.21	 -611.96	  160.04
     71.2000	  218.00	  210.06	 -606.81	  160.07
     71.2500	  212.00	  210.15	 -612.90	  160.10
     71.3000	  205.00	  210.28	 -620.03	  160.13
     71.3500	  207.00	  210.46	 -618.21	  160.16
     71.4000	  204.00	  210.71	 -621.46	  160.19
     71.4500	  206.00	  211.05	 -619.80	  160.22
     71.5000	  211.00	  211.56	 -615.31	  160.25
     71.5500	  216.00	  212.30	 -611.05	  160.28
     71.6000	  214.00	  213.36	 -614.11	  160.31
     71.6500	  210.00	  214.85	 -619.60	  160.34
     71.7000	  219.00	  216.84	 -612.59	  160.38
     71.7500	  222.00	  219.38	 -612.13	  160.41
     71.8000	  224.00	  222.45	 -613.20	  160.44
     71.8500	  231.00	  225.92	 -609.67	  160.47
     71.9000	  227.00	  229.58	 -617.33	  160.50
     71.9500	  237.00	  233.11	 -610.86	  160.53
     72.0000	  235.00	  236.17	 -615.92	  160.56
     72.0500	  238.00	  238.54	 -615.29	  160.59
     72.1000	  245.00	  240.19	 -609.94	  160.62
     72.1500	  242.00	  242.71	 -615.46	  160.65
     72.2000	  248.00	  243.85	 -610.60	  160.68
     72.2500	  246.00	  245.81	 -614.56	  160.71
     72.3000	  243.00	  249.69	 -621.44	  160.74
     72.3500	  253.00	  256.48	 -618.23	  160.77
     72.4000	  259.00	  266.64	 -622.39	  160.80
     72.4500	  278.00	  279.84	 -616.59	  160.83
     72.5000	  281.00	  295.54	 -629.29	  160.87
     72.5500	  297.00	  310.35	 -628.10	  160.90
     72.6000	  310.00	  322.38	 -627.13	  160.93
     72.6500	  324.00	  328.97	 -619.72	  160.96
     72.7000	  322.00	  328.16	 -620.91	  160.99
     72.7500	  311.00	  319.67	 -623.42	  161.02
     72.8000	  295.00	  305.32	 -625.07	  161.05
     72.8500	  281.00	  288.14	 -621.89	  161.08
     72.9000	  259.00	  270.96	 -626.71	  161.12
     72.9500	  250.00	  255.74	 -620.49	  161.15
     73.0000	  239.00	  243.45	 -619.20	  161.18
     73.0500	  233.00	  234.28	 -616.03	  161.21
     73.1000	  227.00	  227.89	 -615.64	  161.24
     73.1500	  226.00	  223.70	 -612.45	  161.27
     73.2000	  223.00	  221.13	 -612.88	  161.30
     73.2500	  211.00	  219.65	 -623.40	  161.34
     73.3000	  209.00	  218.90	 -624.65	  161.37
     73.3500	  217.00	  218.57	 -616.32	  161.40
     73.4000	  214.00	  218.55	 -619.30	  161.43
     73.4500	  213.00	  218.71	 -620.46	  161.46
     73.5000	  217.00	  218.98	 -616.73	  161.49
     73.5500	  220.00	  219.34	 -614.09	  161.53
     73.6000	  210.00	  219.79	 -624.54	  161.56
     73.6500	  209.00	  220.31	 -626.06	  161.59
     73.7000	  215.00	  220.92	 -620.67	  161.62
     73.7500	  218.00	  221.63	 -618.38	  161.65
     73.8000	  215.00	  222.50	 -622.25	  161.69
     73.8500	  217.00	  223.50	 -621.25	  161.72
     73.9000	  221.00	  224.69	 -618.44	  161.75
     73.9500	  217.00	  226.11	 -623.86	  161.78
     74.0000	  219.00	  227.84	 -623.59	  161.82
     74.0500	  220.00	  229.95	 -624.70	  161.85
     74.1000	  228.00	  232.58	 -619.33	  161.88
     74.1500	  229.00	  235.92	 -621.67	  161.91
     74.2000	  230.00	  240.36	 -625.11	  161.94
     74.2500	  234.00	  246.56	 -627.31	  161.98
     74.3000	  251.00	  255.75	 -619.50	  162.01
     74.3500	  261.00	  270.00	 -623.75	  162.04
     74.4000	  288.00	  292.53	 -619.28	  162.07
     74.4500	  313.00	  327.73	 -629.48	  162.11
     74.5000	  362.00	  380.65	 -633.40	  162.14
     74.5500	  424.00	  455.87	 -646.62	  162.17
     74.6000	  524.00	  555.56	 -646.31	  162.21
     74.6500	  646.00	  677.72	 -646.47	  162.24
     74.7000	  781.00	  814.90	 -648.65	  162.27
     74.7500	  920.00	  954.38	 -649.13	  162.30
     74.8000	 1024.00	 1079.66	 -670.41	  162.34
     74.8500	 1120.00	 1172.77	 -667.52	  162.37
     74.9000	 1187.00	 1219.32	 -647.07	  162.40
     74.9500	 1187.00	 1214.78	 -642.53	  162.44
     75.0000	 1166.00	 1169.44	 -618.19	  162.47
     75.0500	 1114.00	 1100.76	 -601.51	  162.50
     75.1000	 1044.00	 1023.12	 -593.87	  162.53
     75.1500	  991.00	  942.42	 -566.17	  162.57
     75.2000	  927.00	  857.76	 -545.51	  162.60
     75.2500	  823.00	  766.63	 -558.38	  162.63
     75.3000	  717.00	  670.48	 -568.23	  162.67
     75.3500	  619.00	  575.58	 -571.33	  162.70
     75.4000	  520.00	  489.05	 -583.80	  162.73
     75.4500	  421.00	  415.88	 -609.63	  162.77
     75.5000	  353.00	  358.07	 -619.82	  162.80
     75.5500	  308.00	  314.92	 -621.67	  162.83
     75.6000	  273.00	  284.68	 -626.43	  162.87
     75.6500	  256.00	  264.32	 -623.07	  162.90
     75.7000	  245.00	  251.06	 -620.81	  162.93
     75.7500	  234.00	  242.61	 -623.36	  162.97
     75.8000	  230.00	  237.26	 -622.01	  163.00
     75.8500	  224.00	  233.83	 -624.58	  163.04
     75.9000	  232.00	  231.58	 -614.33	  163.07
     75.9500	  226.00	  230.07	 -618.82	  163.10
     76.0000	  222.00	  229.09	 -621.84	  163.14
     76.0500	  222.00	  228.59	 -621.34	  163.17
     76.1000	  227.00	  228.57	 -616.32	  163.20
     76.1500	  225.00	  229.13	 -618.88	  163.24
     76.2000	  226.00	  230.40	 -619.15	  163.27
     76.2500	  227.00	  232.18	 -619.93	  163.31
     76.3000	  229.00	  234.31	 -620.06	  163.34
     76.3500	  235.00	  236.54	 -616.29	  163.37
     76.4000	  233.00	  238.47	 -620.22	  163.41
     76.4500	  243.00	  239.63	 -611.38	  163.44
     76.5000	  238.00	  239.62	 -616.37	  163.48
     76.5500	  237.00	  238.29	 -616.04	  163.51
     76.6000	  236.00	  235.86	 -614.61	  163.55
     76.6500	  232.00	  232.86	 -615.61	  163.58
     76.7000	  231.00	  229.83	 -613.58	  163.61
     76.7500	  227.00	  227.16	 -614.91	  163.65
     76.8000	  225.00	  225.06	 -614.81	  163.68
     76.8500	  220.00	  224.91	 -619.66	  163.72
     76.9000	  218.00	  224.16	 -620.91	  163.75
     76.9500	  215.00	  224.08	 -623.83	  163.79
     77.0000	  219.00	  224.73	 -620.48	  163.82
     77.0500	  224.00	  226.34	 -617.09	  163.86
     77.1000	  225.00	  229.31	 -619.06	  163.89
     77.1500	  222.00	  234.23	 -626.98	  163.93
     77.2000	  231.00	  241.73	 -625.48	  163.96
     77.2500	  243.00	  252.31	 -624.06	  163.99
     77.3000	  250.00	  266.03	 -630.78	  164.03
     77.3500	  269.00	  282.22	 -627.97	  164.06
     77.4000	  286.00	  299.39	 -628.14	  164.10
     77.4500	  310.00	  315.24	 -619.99	  164.13
     77.5000	  325.00	  327.02	 -616.77	  164.17
     77.5500	  332.00	  332.08	 -614.83	  164.20
     77.6000	  337.00	  328.75	 -606.50	  164.24
     77.6500	  329.00	  317.79	 -603.54	  164.27
     77.7000	  303.00	  300.35	 -612.10	  164.31
     77.7500	  278.00	  282.78	 -619.53	  164.34
     77.8000	  268.00	  266.34	 -613.09	  164.38
     77.8500	  252.00	  252.61	 -615.36	  164.41
     77.9000	  236.00	  242.12	 -620.87	  164.45
     77.9500	  228.00	  234.72	 -621.47	  164.48
     78.0000	  219.00	  229.89	 -625.64	  164.52
     78.0500	  225.00	  226.34	 -616.09	  164.55
     78.1000	  222.00	  224.83	 -617.58	  164.59
     78.1500	  214.00	  224.26	 -625.01	  164.63
     78.2000	  228.00	  224.36	 -611.11	  164.66
     78.2500	  221.00	  224.99	 -618.74	  164.70
     78.3000	  217.00	  226.18	 -623.93	  164.73
     78.3500	  221.00	  228.09	 -621.84	  164.77
     78.4000	  222.00	  231.07	 -623.82	  164.80
     78.4500	  226.00	  235.65	 -624.40	  164.84
     78.5000	  237.00	  242.41	 -620.16	  164.87
     78.5500	  246.00	  251.89	 -620.64	  164.91
     78.6000	  255.00	  264.50	 -624.25	  164.95
     78.6500	  269.00	  279.43	 -625.18	  164.98
     78.7000	  284.00	  295.82	 -626.57	  165.02
     78.7500	  302.00	  311.93	 -624.68	  165.05
     78.8000	  313.00	  325.66	 -627.41	  165.09
     78.8500	  327.00	  335.04	 -622.79	  165.12
     78.9000	  321.00	  339.31	 -633.06	  165.16
     78.9500	  333.00	  340.36	 -622.11	  165.20
     79.0000	  331.00	  342.44	 -626.19	  165.23
     79.0500	  332.00	  352.24	 -634.99	  165.27
     79.1000	  358.00	  376.66	 -633.41	  165.30
     79.1500	  402.00	  421.61	 -634.36	  165.34
     79.2000	  460.00	  490.40	 -645.15	  165.38
     79.2500	  557.00	  581.89	 -639.64	  165.41
     79.3000	  660.00	  689.13	 -643.88	  165.45
     79.3500	  769.00	  799.20	 -644.95	  165.48
     79.4000	  859.00	  894.42	 -650.17	  165.52
     79.4500	  934.00	  954.98	 -635.73	  165.56
     79.5000	  955.00	  964.11	 -623.86	  165.59
     79.5500	  921.00	  916.48	 -610.23	  165.63
     79.6000	  824.00	  823.77	 -614.52	  165.67
     79.6500	  694.00	  708.62	 -629.37	  165.70
     79.7000	  578.00	  593.02	 -629.77	  165.74
     79.7500	  474.00	  491.87	 -632.62	  165.77
     79.8000	  402.00	  412.36	 -625.11	  165.81
     79.8500	  344.00	  355.87	 -626.62	  165.85
     79.9000	  306.00	  320.09	 -628.84	  165.88
     79.9500	  300.00	  301.09	 -615.84	  165.92
     80.0000	  292.00	  294.54	 -617.29	  165.96
     80.0500	  292.00	  296.28	 -619.03	  165.99
     80.1000	  302.00	  302.42	 -615.17	  166.03
     80.1500	  304.00	  309.38	 -620.13	  166.07
     80.2000	  306.00	  314.00	 -622.75	  166.10
     80.2500	  305.00	  313.95	 -623.70	  166.14
     80.3000	  303.00	  308.24	 -619.99	  166.18
     80.3500	  299.00	  297.55	 -613.30	  166.21
     80.4000	  278.00	  284.43	 -621.18	  166.25
     80.4500	  259.00	  272.05	 -627.80	  166.29
     80.5000	  257.00	  260.27	 -618.02	  166.32
     80.5500	  245.00	  250.91	 -620.66	  166.36
     80.6000	  237.00	  244.22	 -621.97	  166.40
     80.6500	  240.00	  240.11	 -614.86	  166.44
     80.7000	  233.00	  238.44	 -620.19	  166.47
     80.7500	  232.00	  239.19	 -621.94	  166.51
     80.8000	  235.00	  242.64	 -622.39	  166.55
     80.8500	  241.00	  249.32	 -623.07	  166.58
     80.9000	  257.00	  259.78	 -617.53	  166.62
     80.9500	  274.00	  274.30	 -615.05	  166.66
     81.0000	  292.00	  292.52	 -615.27	  166.70
     81.0500	  309.00	  313.24	 -618.99	  166.73
     81.1000	  333.00	  334.43	 -616.18	  166.77
     81.1500	  360.00	  353.53	 -608.28	  166.81
     81.2000	  381.00	  367.89	 -601.64	  166.84
     81.2500	  387.00	  375.72	 -603.47	  166.88
     81.3000	  387.00	  377.29	 -605.04	  166.92
     81.3500	  386.00	  374.96	 -603.71	  166.96
     81.4000	  382.00	  371.17	 -603.92	  166.99
     81.4500	  368.00	  366.84	 -613.59	  167.03
     81.5000	  363.00	  361.01	 -612.76	  167.07
     81.5500	  352.00	  351.73	 -614.48	  167.11
     81.6000	  337.00	  337.54	 -615.29	  167.14
     81.6500	  321.00	  319.35	 -613.10	  167.18
     81.7000	  297.00	  299.60	 -617.35	  167.22
     81.7500	  281.00	  280.88	 -614.63	  167.26
     81.8000	  265.00	  264.95	 -614.70	  167.29
     81.8500	  255.00	  252.97	 -612.72	  167.33
     81.9000	  251.00	  244.02	 -607.77	  167.37
     81.9500	  237.00	  238.02	 -615.77	  167.41
     82.0000	  238.00	  234.31	 -611.06	  167.45
     82.0500	  237.00	  232.23	 -609.98	  167.48
     82.1000	  228.00	  231.29	 -618.04	  167.52
     82.1500	  240.00	  231.14	 -605.89	  167.56
     82.2000	  234.00	  231.58	 -612.33	  167.60
     82.2500	  226.00	  231.28	 -620.03	  167.63
     82.3000	  229.00	  232.75	 -618.50	  167.67
     82.3500	  228.00	  234.86	 -621.61	  167.71
     82.4000	  233.00	  237.90	 -619.65	  167.75
     82.4500	  243.00	  242.52	 -614.27	  167.79
     82.5000	  241.00	  250.05	 -623.80	  167.82
     82.5500	  257.00	  262.08	 -619.83	  167.86
     82.6000	  279.00	  281.56	 -617.31	  167.90
     82.6500	  305.00	  311.92	 -621.67	  167.94
     82.7000	  345.00	  356.34	 -626.09	  167.98
     82.7500	  410.00	  416.34	 -621.09	  168.01
     82.8000	  455.00	  490.18	 -649.93	  168.05
     82.8500	  545.00	  571.64	 -641.39	  168.09
     82.9000	  622.00	  650.06	 -642.81	  168.13
     82.9500	  673.00	  711.59	 -653.34	  168.17
     83.0000	  725.00	  741.88	 -631.63	  168.21
     83.0500	  717.00	  730.53	 -628.28	  168.24
     83.1000	  661.00	  679.45	 -633.20	  168.28
     83.1500	  592.00	  602.58	 -625.33	  168.32
     83.2000	  518.00	  517.88	 -614.63	  168.36
     83.2500	  443.00	  439.25	 -611.00	  168.40
     83.3000	  371.00	  374.23	 -617.98	  168.44
     83.3500	  336.00	  325.77	 -604.52	  168.47
     83.4000	  290.00	  291.42	 -616.17	  168.51
     83.4500	  265.00	  268.94	 -618.69	  168.55
     83.5000	  252.00	  255.20	 -617.95	  168.59
     83.5500	  250.00	  247.48	 -612.23	  168.63
     83.6000	  244.00	  243.73	 -614.48	  168.67
     83.6500	  242.00	  242.55	 -615.30	  168.71
     83.7000	  241.00	  242.97	 -616.72	  168.74
     83.7500	  243.00	  244.38	 -616.13	  168.78
     83.8000	  248.00	  246.40	 -613.15	  168.82
     83.8500	  253.00	  248.93	 -610.68	  168.86
     83.9000	  252.00	  252.23	 -614.98	  168.90
     83.9500	  264.00	  256.95	 -607.70	  168.94
     84.0000	  266.00	  265.02	 -613.77	  168.98
     84.0500	  282.00	  278.18	 -610.93	  169.02
     84.1000	  291.00	  298.17	 -621.92	  169.05
     84.1500	  313.00	  325.74	 -627.49	  169.09
     84.2000	  346.00	  360.55	 -629.30	  169.13
     84.2500	  374.00	  397.72	 -638.47	  169.17
     84.3000	  415.00	  432.92	 -632.67	  169.21
     84.3500	  430.00	  459.14	 -643.89	  169.25
     84.4000	  433.00	  469.65	 -651.40	  169.29
     84.4500	  430.00	  460.66	 -645.41	  169.33
     84.5000	  406.00	  434.59	 -643.34	  169.37
     84.5500	  384.00	  399.26	 -630.01	  169.40
     84.6000	  349.00	  363.43	 -629.18	  169.44
     84.6500	  318.00	  333.50	 -630.25	  169.48
     84.7000	  307.00	  312.93	 -620.68	  169.52
     84.7500	  298.00	  302.61	 -619.36	  169.56
     84.8000	  296.00	  301.52	 -620.27	  169.60
     84.8500	  304.00	  307.30	 -618.05	  169.64
     84.9000	  313.00	  316.82	 -618.57	  169.68
     84.9500	  328.00	  326.54	 -613.29	  169.72
     85.0000	  346.00	  333.23	 -601.98	  169.76
     85.0500	  341.00	  334.82	 -608.57	  169.80
     85.1000	  335.00	  331.80	 -611.55	  169.83
     85.1500	  324.00	  327.55	 -618.30	  169.87
     85.2000	  336.00	  326.67	 -605.42	  169.91
     85.2500	  341.00	  333.05	 -606.80	  169.95
     85.3000	  341.00	  348.75	 -622.50	  169.99
     85.3500	  370.00	  373.67	 -618.42	  170.03
     85.4000	  414.00	  405.76	 -606.51	  170.07
     85.4500	  442.00	  441.50	 -614.25	  170.11
     85.5000	  490.00	  476.78	 -601.53	  170.15
     85.5500	  520.00	  507.90	 -602.65	  170.19
     85.6000	  532.00	  533.41	 -616.16	  170.23
     85.6500	  548.00	  555.88	 -622.63	  170.27
     85.7000	  561.00	  576.03	 -629.78	  170.31
     85.7500	  567.00	  596.02	 -643.77	  170.35
     85.8000	  585.00	  611.45	 -641.20	  170.39
     85.8500	  584.00	  610.89	 -641.64	  170.43
     85.9000	  558.00	  588.93	 -645.68	  170.47
     85.9500	  527.00	  545.65	 -633.40	  170.51
     86.0000	  481.00	  489.67	 -623.42	  170.54
     86.0500	  424.00	  431.85	 -622.60	  170.58
     86.1000	  370.00	  380.90	 -625.65	  170.62
     86.1500	  333.00	  342.25	 -624.00	  170.66
     86.2000	  312.00	  315.75	 -618.50	  170.70
     86.2500	  301.00	  302.36	 -616.11	  170.74
     86.3000	  307.00	  302.01	 -609.76	  170.78
     86.3500	  314.00	  315.10	 -615.85	  170.82
     86.4000	  340.00	  342.31	 -617.06	  170.86
     86.4500	  379.00	  383.56	 -619.31	  170.90
     86.5000	  427.00	  436.60	 -624.35	  170.94
     86.5500	  467.00	  495.97	 -643.72	  170.98
     86.6000	  535.00	  552.90	 -632.65	  171.02
     86.6500	  584.00	  596.12	 -626.87	  171.06
     86.7000	  602.00	  614.16	 -626.91	  171.10
     86.7500	  580.00	  600.06	 -634.81	  171.14
     86.8000	  532.00	  557.02	 -639.77	  171.18
     86.8500	  481.00	  497.46	 -631.21	  171.22
     86.9000	  426.00	  435.22	 -623.97	  171.26
     86.9500	  379.00	  379.91	 -615.66	  171.30
     87.0000	  329.00	  336.05	 -621.80	  171.34
     87.0500	  303.00	  303.90	 -615.65	  171.38
     87.1000	  288.00	  282.81	 -609.56	  171.42
     87.1500	  271.00	  269.94	 -613.69	  171.46
     87.2000	  269.00	  262.87	 -608.62	  171.50
     87.2500	  267.00	  259.65	 -607.40	  171.54
     87.3000	  263.00	  258.99	 -610.74	  171.58
     87.3500	  267.00	  259.63	 -607.38	  171.62
     87.4000	  260.00	  261.16	 -615.91	  171.66
     87.4500	  260.00	  263.37	 -618.12	  171.70
     87.5000	  263.00	  266.42	 -618.17	  171.74
     87.5500	  263.00	  270.88	 -622.63	  171.78
     87.6000	  270.00	  277.76	 -622.51	  171.82
     87.6500	  278.00	  288.58	 -625.33	  171.86
     87.7000	  293.00	  308.41	 -630.16	  171.90
     87.7500	  318.00	  337.03	 -633.78	  171.94
     87.8000	  364.00	  382.40	 -633.15	  171.98
     87.8500	  424.00	  449.54	 -640.29	  172.02
     87.9000	  512.00	  544.45	 -647.20	  172.06
     87.9500	  643.00	  669.47	 -641.22	  172.10
     88.0000	  817.00	  821.15	 -618.90	  172.14
     88.0500	  982.00	  988.01	 -620.76	  172.18
     88.1000	 1163.00	 1150.01	 -601.76	  172.22
     88.1500	 1289.00	 1282.75	 -608.50	  172.26
     88.2000	 1373.00	 1364.46	 -606.21	  172.30
     88.2500	 1393.00	 1383.35	 -605.10	  172.34
     88.3000	 1348.00	 1339.52	 -606.27	  172.39
     88.3500	 1244.00	 1252.96	 -623.71	  172.43
     88.4000	 1157.00	 1152.59	 -610.34	  172.47
     88.4500	 1077.00	 1064.23	 -601.98	  172.51
     88.5000	 1020.00	  995.46	 -590.21	  172.55
     88.5500	  965.00	  941.45	 -591.20	  172.59
     88.6000	  907.00	  887.81	 -595.56	  172.63
     88.6500	  858.00	  820.44	 -577.19	  172.67
     88.7000	  771.00	  734.33	 -578.08	  172.71
     88.7500	  647.00	  637.39	 -605.14	  172.75
     88.8000	  555.00	  543.06	 -602.81	  172.79
     88.8500	  468.00	  461.57	 -608.32	  172.83
     88.9000	  405.00	  397.43	 -607.18	  172.87
     88.9500	  348.00	  350.71	 -617.46	  172.91
     89.0000	  316.00	  318.89	 -617.64	  172.95
     89.0500	  291.00	  298.46	 -622.21	  172.99
     89.1000	  277.00	  286.12	 -623.87	  173.03
     89.1500	  278.00	  279.24	 -615.99	  173.07
     89.2000	  270.00	  276.02	 -620.77	  173.11
     89.2500	  262.00	  275.45	 -628.20	  173.15
     89.3000	  268.00	  276.42	 -623.17	  173.19
     89.3500	  270.00	  280.57	 -625.32	  173.24
     89.4000	  279.00	  287.68	 -623.43	  173.28
     89.4500	  287.00	  298.48	 -626.23	  173.32
     89.5000	  300.00	  313.65	 -628.40	  173.36
     89.5500	  319.00	  333.72	 -629.47	  173.40
     89.6000	  347.00	  359.22	 -626.97	  173.44
     89.6500	  378.00	  391.63	 -628.38	  173.48
     89.7000	  420.00	  433.07	 -627.82	  173.52
     89.7500	  469.00	  488.68	 -634.43	  173.56
     89.8000	  536.00	  565.86	 -644.61	  173.60
     89.8500	  645.00	  672.91	 -642.66	  173.64
     89.9000	  773.00	  814.25	 -656.00	  173.68
     89.9500	  925.00	  984.57	 -674.32	  173.72
     90.0000	 1115.00	 1165.87	 -665.62	  173.76
     90.0500	 1254.00	 1328.42	 -689.17	  173.80
     90.1000	 1367.00	 1435.60	 -683.35	  173.85
     90.1500	 1400.00	 1456.56	 -671.31	  173.89
     90.2000	 1327.00	 1385.73	 -673.48	  173.93
     90.2500	 1188.00	 1246.90	 -673.65	  173.97
     90.3000	 1038.00	 1075.56	 -652.31	  174.01
     90.3500	  879.00	  904.90	 -640.65	  174.05
     90.4000	  738.00	  761.22	 -637.97	  174.09
     90.4500	  644.00	  660.95	 -631.70	  174.13
     90.5000	  594.00	  609.93	 -630.68	  174.17
     90.5500	  601.00	  605.34	 -619.09	  174.21
     90.6000	  643.00	  637.72	 -609.47	  174.25
     90.6500	  697.00	  692.02	 -609.77	  174.29
     90.7000	  786.00	  748.22	 -576.97	  174.33
     90.7500	  842.00	  786.03	 -558.78	  174.38
     90.8000	  847.00	  785.94	 -553.69	  174.42
     90.8500	  791.00	  739.33	 -563.08	  174.46
     90.9000	  702.00	  660.24	 -572.99	  174.50
     90.9500	  592.00	  568.01	 -590.76	  174.54
     91.0000	  508.00	  480.64	 -587.39	  174.58
     91.0500	  418.00	  407.87	 -604.62	  174.62
     91.1000	  362.00	  353.02	 -605.77	  174.66
     91.1500	  328.00	  314.56	 -601.31	  174.70
     91.2000	  299.00	  288.27	 -604.02	  174.74
     91.2500	  279.00	  272.25	 -608.00	  174.78
     91.3000	  270.00	  262.69	 -607.44	  174.83
     91.3500	  257.00	  256.87	 -614.62	  174.87
     91.4000	  253.00	  253.39	 -615.14	  174.91
     91.4500	  258.00	  251.38	 -608.13	  174.95
     91.5000	  257.00	  250.36	 -608.11	  174.99
     91.5500	  249.00	  250.25	 -616.00	  175.03
     91.6000	  245.00	  251.28	 -621.03	  175.07
     91.6500	  257.00	  254.04	 -611.79	  175.11
     91.7000	  260.00	  259.37	 -614.12	  175.15
     91.7500	  284.00	  268.46	 -599.21	  175.19
     91.8000	  296.00	  281.73	 -600.48	  175.23
     91.8500	  322.00	  299.31	 -592.06	  175.28
     91.9000	  343.00	  319.90	 -591.65	  175.32
     91.9500	  382.00	  340.77	 -573.52	  175.36
     92.0000	  405.00	  357.93	 -567.68	  175.40
     92.0500	  411.00	  367.00	 -570.75	  175.44
     92.1000	  416.00	  364.92	 -563.67	  175.48
     92.1500	  406.00	  352.49	 -561.24	  175.52
     92.2000	  372.00	  334.55	 -577.30	  175.56
     92.2500	  353.00	  316.71	 -578.46	  175.60
     92.3000	  330.00	  302.35	 -587.10	  175.64
     92.3500	  317.00	  295.13	 -592.88	  175.69
     92.4000	  313.00	  289.52	 -591.27	  175.73
     92.4500	  312.00	  285.73	 -588.48	  175.77
     92.5000	  309.00	  281.61	 -587.36	  175.81
     92.5500	  303.00	  275.82	 -587.57	  175.85
     92.6000	  288.00	  268.57	 -595.32	  175.89
     92.6500	  276.00	  259.04	 -597.79	  175.93
     92.7000	  264.00	  252.36	 -603.11	  175.97
     92.7500	  246.00	  247.02	 -615.77	  176.01
     92.8000	  249.00	  242.61	 -608.36	  176.05
     92.8500	  241.00	  240.08	 -613.83	  176.10
     92.9000	  251.00	  238.60	 -602.35	  176.14
     92.9500	  243.00	  237.91	 -609.66	  176.18
     93.0000	  246.00	  237.80	 -606.55	  176.22
     93.0500	  246.00	  238.11	 -606.86	  176.26
     93.1000	  249.00	  238.87	 -604.62	  176.30
     93.1500	  244.00	  240.11	 -610.86	  176.34
     93.2000	  252.00	  242.07	 -604.82	  176.38
     93.2500	  252.00	  245.21	 -607.96	  176.42
     93.3000	  258.00	  249.19	 -605.94	  176.47
     93.3500	  265.00	  257.11	 -606.86	  176.51
     93.4000	  263.00	  268.78	 -620.53	  176.55
     93.4500	  284.00	  284.68	 -615.43	  176.59
     93.5000	  299.00	  304.30	 -620.05	  176.63
     93.5500	  320.00	  325.82	 -620.57	  176.67
     93.6000	  344.00	  346.11	 -616.86	  176.71
     93.6500	  363.00	  361.20	 -612.95	  176.75
     93.7000	  372.00	  367.54	 -610.29	  176.79
     93.7500	  358.00	  365.24	 -621.99	  176.83
     93.8000	  351.00	  355.78	 -619.53	  176.88
     93.8500	  354.00	  345.64	 -606.39	  176.92
     93.9000	  330.00	  339.23	 -623.98	  176.96
     93.9500	  322.00	  338.17	 -630.92	  177.00
     94.0000	  334.00	  341.52	 -622.27	  177.04
     94.0500	  339.00	  346.70	 -622.45	  177.08
     94.1000	  345.00	  350.75	 -620.50	  177.12
     94.1500	  357.00	  352.38	 -610.13	  177.16
     94.2000	  360.00	  354.07	 -608.82	  177.20
     94.2500	  358.00	  362.22	 -618.97	  177.24
     94.3000	  372.00	  385.42	 -628.17	  177.29
     94.3500	  425.00	  433.12	 -622.87	  177.33
     94.4000	  511.00	  513.89	 -617.64	  177.37
     94.4500	  626.00	  632.14	 -620.89	  177.41
     94.5000	  770.00	  783.80	 -628.55	  177.45
     94.5500	  946.00	  953.09	 -621.84	  177.49
     94.6000	 1118.00	 1111.86	 -608.61	  177.53
     94.6500	 1205.00	 1223.92	 -633.67	  177.57
     94.7000	 1227.00	 1252.70	 -640.45	  177.61
     94.7500	 1157.00	 1182.40	 -640.15	  177.65
     94.8000	 1041.00	 1035.12	 -608.87	  177.70
     94.8500	  873.00	  856.73	 -598.48	  177.74
     94.9000	  715.00	  686.85	 -586.60	  177.78
     94.9500	  562.00	  546.79	 -599.54	  177.82
     95.0000	  446.00	  442.45	 -611.20	  177.86
     95.0500	  377.00	  370.77	 -608.52	  177.90
     95.1000	  332.00	  324.61	 -607.36	  177.94
     95.1500	  297.00	  296.43	 -614.18	  177.98
     95.2000	  282.00	  279.97	 -612.72	  178.02
     95.2500	  276.00	  271.94	 -610.69	  178.06
     95.3000	  264.00	  266.87	 -617.62	  178.10
     95.3500	  261.00	  264.18	 -617.93	  178.15
     95.4000	  266.00	  262.93	 -611.68	  178.19
     95.4500	  261.00	  262.71	 -616.46	  178.23
     95.5000	  253.00	  263.52	 -625.27	  178.27
     95.5500	  258.00	  265.68	 -622.43	  178.31
     95.6000	  262.00	  270.00	 -622.75	  178.35
     95.6500	  260.00	  277.95	 -632.70	  178.39
     95.7000	  283.00	  291.95	 -623.70	  178.43
     95.7500	  307.00	  315.22	 -622.97	  178.47
     95.8000	  344.00	  351.23	 -621.98	  178.51
     95.8500	  402.00	  402.00	 -614.75	  178.55
     95.9000	  453.00	  466.34	 -628.09	  178.59
     95.9500	  529.00	  538.05	 -623.80	  178.64
     96.0000	  604.00	  605.70	 -616.45	  178.68
     96.0500	  661.00	  654.00	 -607.75	  178.72
     96.1000	  672.00	  667.44	 -610.19	  178.76
     96.1500	  629.00	  638.44	 -624.19	  178.80
     96.2000	  588.00	  576.37	 -603.12	  178.84
     96.2500	  510.00	  500.64	 -605.39	  178.88
     96.3000	  440.00	  428.55	 -603.30	  178.92
     96.3500	  377.00	  369.28	 -607.03	  178.96
     96.4000	  330.00	  325.33	 -610.08	  179.00
     96.4500	  301.00	  295.28	 -609.03	  179.04
     96.5000	  280.00	  276.26	 -611.01	  179.08
     96.5500	  269.00	  264.70	 -610.45	  179.12
     96.6000	  258.00	  257.95	 -614.70	  179.17
     96.6500	  252.00	  254.44	 -617.19	  179.21
     96.7000	  251.00	  252.75	 -616.50	  179.25
     96.7500	  252.00	  252.18	 -614.93	  179.29
     96.8000	  256.00	  252.35	 -611.10	  179.33
     96.8500	  253.00	  253.15	 -614.90	  179.37
     96.9000	  253.00	  254.62	 -616.37	  179.41
     96.9500	  253.00	  256.97	 -618.72	  179.45
     97.0000	  262.00	  260.68	 -613.43	  179.49
     97.0500	  265.00	  266.65	 -616.40	  179.53
     97.1000	  284.00	  276.63	 -607.38	  179.57
     97.1500	  291.00	  291.97	 -615.72	  179.61
     97.2000	  323.00	  319.85	 -611.60	  179.65
     97.2500	  374.00	  363.17	 -603.92	  179.69
     97.3000	  431.00	  425.09	 -608.84	  179.73
     97.3500	  511.00	  504.80	 -608.55	  179.77
     97.4000	  602.00	  595.29	 -608.04	  179.82
     97.4500	  678.00	  682.56	 -619.31	  179.86
     97.5000	  743.00	  747.03	 -618.78	  179.90
     97.5500	  756.00	  768.22	 -626.97	  179.94
     97.6000	  717.00	  735.27	 -633.02	  179.98
     97.6500	  657.00	  658.85	 -616.60	  180.02
     97.7000	  581.00	  564.31	 -598.06	  180.06
     97.7500	  490.00	  474.20	 -598.95	  180.10
     97.8000	  418.00	  400.52	 -597.27	  180.14
     97.8500	  364.00	  346.60	 -597.35	  180.18
     97.9000	  335.00	  310.61	 -590.36	  180.22
     97.9500	  306.00	  288.60	 -597.35	  180.26
     98.0000	  290.00	  276.51	 -601.26	  180.30
     98.0500	  286.00	  270.12	 -598.87	  180.34
     98.1000	  283.00	  266.72	 -598.47	  180.38
     98.1500	  283.00	  264.27	 -596.02	  180.42
     98.2000	  274.00	  261.68	 -602.43	  180.46
     98.2500	  262.00	  258.88	 -611.63	  180.50
     98.3000	  266.00	  256.41	 -605.16	  180.54
     98.3500	  261.00	  254.87	 -608.62	  180.58
     98.4000	  261.00	  254.83	 -608.58	  180.62
     98.4500	  264.00	  256.94	 -607.69	  180.66
     98.5000	  269.00	  261.80	 -607.55	  180.70
     98.5500	  278.00	  268.96	 -605.71	  180.74
     98.6000	  288.00	  280.22	 -606.97	  180.78
     98.6500	  306.00	  293.71	 -602.46	  180.82
     98.7000	  319.00	  307.43	 -603.18	  180.86
     98.7500	  330.00	  318.51	 -603.26	  180.90
     98.8000	  343.00	  324.13	 -595.88	  180.94
     98.8500	  341.00	  321.68	 -595.43	  180.98
     98.9000	  325.00	  312.85	 -602.60	  181.03
     98.9500	  318.00	  301.80	 -598.55	  181.07
     99.0000	  298.00	  292.96	 -609.71	  181.11
     99.0500	  299.00	  289.78	 -605.53	  181.15
     99.1000	  288.00	  294.93	 -621.68	  181.19
     99.1500	  309.00	  310.73	 -616.48	  181.23
     99.2000	  344.00	  338.66	 -609.41	  181.27
     99.2500	  382.00	  378.32	 -611.07	  181.31
     99.3000	  422.00	  426.19	 -618.94	  181.35
     99.3500	  470.00	  474.94	 -619.69	  181.39
     99.4000	  512.00	  514.11	 -616.86	  181.43
     99.4500	  514.00	  531.85	 -632.60	  181.46
     99.5000	  515.00	  520.87	 -620.62	  181.50
     99.5500	  488.00	  485.37	 -612.12	  181.54
     99.6000	  440.00	  439.16	 -613.91	  181.58
     99.6500	  396.00	  395.30	 -614.05	  181.62
     99.7000	  366.00	  360.49	 -609.24	  181.66
     99.7500	  332.00	  335.75	 -618.50	  181.70
     99.8000	  311.00	  318.85	 -622.60	  181.74
     99.8500	  305.00	  306.73	 -616.48	  181.78
     99.9000	  300.00	  297.70	 -612.45	  181.82
     99.9500	  293.00	  292.25	 -614.00	  181.86
    100.0000	  286.00	  290.61	 -619.36	  181.90
    100.0500	  306.00	  296.01	 -604.76	  181.94
    100.1000	  313.00	  306.76	 -608.51	  181.98
    100.1500	  317.00	  320.82	 -618.57	  182.02
    100.2000	  327.00	  334.65	 -622.40	  182.06
    100.2500	  343.00	  343.73	 -615.48	  182.10
    100.3000	  330.00	  343.85	 -628.60	  182.14
    100.3500	  320.00	  334.06	 -628.81	  182.18
    100.4000	  307.00	  317.06	 -624.81	  182.22
    100.4500	  298.00	  298.46	 -615.21	  182.26
    100.5000	  282.00	  282.14	 -614.89	  182.30
    100.5500	  274.00	  269.84	 -610.59	  182.34
    100.6000	  266.00	  262.02	 -610.77	  182.38
    100.6500	  274.00	  258.52	 -599.27	  182.42
    100.7000	  271.00	  263.83	 -607.58	  182.46
    100.7500	  274.00	  269.47	 -610.22	  182.50
    100.8000	  290.00	  280.39	 -605.14	  182.53
    100.8500	  302.00	  296.91	 -609.66	  182.57
    100.9000	  321.00	  318.29	 -612.04	  182.61
    100.9500	  350.00	  342.11	 -606.86	  182.65
    101.0000	  367.00	  364.12	 -611.87	  182.69
    101.0500	  386.00	  378.68	 -607.43	  182.73
    101.1000	  394.00	  380.44	 -601.19	  182.77
    101.1500	  370.00	  367.94	 -612.69	  182.81
    101.2000	  356.00	  345.70	 -604.45	  182.85
    101.2500	  332.00	  321.86	 -604.61	  182.89
    101.3000	  310.00	  300.71	 -605.46	  182.93
    101.3500	  288.00	  285.05	 -611.80	  182.97
    101.4000	  279.00	  275.24	 -610.99	  183.00
    101.4500	  281.00	  270.40	 -604.15	  183.04
    101.5000	  274.00	  269.37	 -610.12	  183.08
    101.5500	  284.00	  270.45	 -601.20	  183.12
    101.6000	  280.00	  272.23	 -606.98	  183.16
    101.6500	  270.00	  273.37	 -618.12	  183.20
    101.7000	  278.00	  272.96	 -609.71	  183.24
    101.7500	  269.00	  271.11	 -616.86	  183.28
    101.8000	  273.00	  268.71	 -610.46	  183.32
    101.8500	  268.00	  266.04	 -612.79	  183.36
    101.9000	  267.00	  265.00	 -612.75	  183.39
    101.9500	  265.00	  265.10	 -614.85	  183.43
    102.0000	  257.00	  266.39	 -624.14	  183.47
    102.0500	  258.00	  268.87	 -625.62	  183.51
    102.1000	  267.00	  272.68	 -620.43	  183.55
    102.1500	  267.00	  278.18	 -625.93	  183.59
    102.2000	  277.00	  286.07	 -623.82	  183.63
    102.2500	  287.00	  297.39	 -625.14	  183.66
    102.3000	  302.00	  313.82	 -626.57	  183.70
    102.3500	  332.00	  336.83	 -619.58	  183.74
    102.4000	  360.00	  367.80	 -622.55	  183.78
    102.4500	  411.00	  407.40	 -611.15	  183.82
    102.5000	  457.00	  456.87	 -614.62	  183.86
    102.5500	  524.00	  518.53	 -609.28	  183.90
    102.6000	  608.00	  598.92	 -605.67	  183.93
    102.6500	  699.00	  710.17	 -625.92	  183.97
    102.7000	  861.00	  869.27	 -623.02	  184.01
    102.7500	 1096.00	 1089.63	 -608.38	  184.05
    102.8000	 1377.00	 1365.14	 -602.89	  184.09
    102.8500	 1685.00	 1661.41	 -591.16	  184.13
    102.9000	 1901.00	 1917.21	 -630.96	  184.16
    102.9500	 2069.00	 2054.59	 -600.34	  184.20
    103.0000	 2016.00	 2010.54	 -609.29	  184.24
    103.0500	 1800.00	 1790.24	 -604.99	  184.28
    103.1000	 1500.00	 1475.62	 -590.37	  184.32
    103.1500	 1181.00	 1160.13	 -593.88	  184.35
    103.2000	  937.00	  900.24	 -577.99	  184.39
    103.2500	  728.00	  714.85	 -601.60	  184.43
    103.3000	  629.00	  599.69	 -585.44	  184.47
    103.3500	  576.00	  539.43	 -578.18	  184.51
    103.4000	  556.00	  514.93	 -573.68	  184.54
    103.4500	  535.00	  507.04	 -586.79	  184.58
    103.5000	  519.00	  500.22	 -595.97	  184.62
    103.5500	  486.00	  484.24	 -612.99	  184.66
    103.6000	  465.00	  458.78	 -608.53	  184.70
    103.6500	  429.00	  429.36	 -615.11	  184.73
    103.7000	  385.00	  400.40	 -630.15	  184.77
    103.7500	  361.00	  373.32	 -627.07	  184.81
    103.8000	  342.00	  348.21	 -620.96	  184.85
    103.8500	  312.00	  325.68	 -628.43	  184.88
    103.9000	  293.00	  306.79	 -628.54	  184.92
    103.9500	  279.00	  292.06	 -627.81	  184.96
    104.0000	  277.00	  281.25	 -619.00	  185.00
    104.0500	  265.00	  273.61	 -623.36	  185.03
    104.1000	  257.00	  268.49	 -626.24	  185.07
    104.1500	  256.00	  265.16	 -623.91	  185.11
    104.2000	  250.00	  263.21	 -627.96	  185.15
    104.2500	  260.00	  262.50	 -617.25	  185.18
    104.3000	  261.00	  263.15	 -616.90	  185.22
    104.3500	  258.00	  265.56	 -622.31	  185.26
    104.4000	  263.00	  270.39	 -622.14	  185.30
    104.4500	  268.00	  278.29	 -625.04	  185.33
    104.5000	  284.00	  289.60	 -620.35	  185.37
    104.5500	  306.00	  303.92	 -612.67	  185.41
    104.6000	  325.00	  319.72	 -609.47	  185.44
    104.6500	  337.00	  334.29	 -612.04	  185.48
    104.7000	  337.00	  344.44	 -622.19	  185.52
    104.7500	  344.00	  347.69	 -618.44	  185.55
    104.8000	  340.00	  343.49	 -618.24	  185.59
    104.8500	  337.00	  333.97	 -611.72	  185.63
    104.9000	  328.00	  323.95	 -610.70	  185.67
    104.9500	  321.00	  314.71	 -608.46	  185.70
    105.0000	  306.00	  307.22	 -615.97	  185.74
    105.0500	  295.00	  300.64	 -620.39	  185.78
    105.1000	  289.00	  292.89	 -618.64	  185.81
    105.1500	  281.00	  283.63	 -617.38	  185.85
    105.2000	  267.00	  274.17	 -621.92	  185.89
    105.2500	  266.00	  266.35	 -615.10	  185.92
    105.3000	  270.00	  260.31	 -605.06	  185.96
    105.3500	  263.00	  252.14	 -603.89	  186.00
    105.4000	  256.00	  250.29	 -609.04	  186.03
    105.4500	  266.00	  249.73	 -598.48	  186.07
    105.5000	  264.00	  249.83	 -600.58	  186.11
    105.5500	  259.00	  249.96	 -605.71	  186.14
    105.6000	  261.00	  249.56	 -603.31	  186.18
    105.6500	  261.00	  248.43	 -602.18	  186.21
    105.7000	  258.00	  246.84	 -603.59	  186.25
    105.7500	  253.00	  245.22	 -606.97	  186.29
    105.8000	  248.00	  244.00	 -610.75	  186.32
    105.8500	  244.00	  242.62	 -613.37	  186.36
    105.9000	  249.00	  242.07	 -607.82	  186.40
    105.9500	  251.00	  241.87	 -605.62	  186.43
    106.0000	  245.00	  241.98	 -611.73	  186.47
    106.0500	  245.00	  242.36	 -612.11	  186.50
    106.1000	  247.00	  242.97	 -610.72	  186.54
    106.1500	  247.00	  244.66	 -612.41	  186.57
    106.2000	  254.00	  245.92	 -606.67	  186.61
    106.2500	  259.00	  247.30	 -603.05	  186.65
    106.3000	  250.00	  248.66	 -613.41	  186.68
    106.3500	  251.00	  249.82	 -613.57	  186.72
    106.4000	  258.00	  250.69	 -607.44	  186.75
    106.4500	  252.00	  251.41	 -614.16	  186.79
    106.5000	  255.00	  252.35	 -612.10	  186.83
    106.5500	  259.00	  253.89	 -609.64	  186.86
    106.6000	  256.00	  256.46	 -615.21	  186.90
    106.6500	  264.00	  260.69	 -611.44	  186.93
    106.7000	  268.00	  267.68	 -614.43	  186.97
    106.7500	  281.00	  279.25	 -613.00	  187.00
    106.8000	  303.00	  298.01	 -609.76	  187.04
    106.8500	  331.00	  326.85	 -610.60	  187.07
    106.9000	  371.00	  367.71	 -611.46	  187.11
    106.9500	  420.00	  419.68	 -614.43	  187.14
    107.0000	  484.00	  477.53	 -608.28	  187.18
    107.0500	  532.00	  531.64	 -614.39	  187.21
    107.1000	  576.00	  568.53	 -607.28	  187.25
    107.1500	  582.00	  576.36	 -609.11	  187.28
    107.2000	  563.00	  553.27	 -605.02	  187.32
    107.2500	  527.00	  512.84	 -600.59	  187.35
    107.3000	  490.00	  472.78	 -597.53	  187.39
    107.3500	  465.00	  443.02	 -592.77	  187.42
    107.4000	  467.00	  424.02	 -571.77	  187.46
    107.4500	  449.00	  410.56	 -576.31	  187.49
    107.5000	  416.00	  395.23	 -593.98	  187.53
    107.5500	  393.00	  374.02	 -595.77	  187.56
    107.6000	  366.00	  349.21	 -597.96	  187.60
    107.6500	  331.00	  326.09	 -609.84	  187.63
    107.7000	  316.00	  308.53	 -607.28	  187.67
    107.7500	  297.00	  298.04	 -615.79	  187.70
    107.8000	  294.00	  294.51	 -615.26	  187.73
    107.8500	  292.00	  296.93	 -619.68	  187.77
    107.9000	  286.00	  303.91	 -632.66	  187.80
    107.9500	  295.00	  313.49	 -633.24	  187.84
    108.0000	  306.00	  324.52	 -633.27	  187.87
    108.0500	  315.00	  336.74	 -636.49	  187.91
    108.1000	  334.00	  352.06	 -632.81	  187.94
    108.1500	  373.00	  375.56	 -617.31	  187.97
    108.2000	  406.00	  406.29	 -615.04	  188.01
    108.2500	  447.00	  443.18	 -610.93	  188.04
    108.3000	  499.00	  478.89	 -594.64	  188.08
    108.3500	  507.00	  502.32	 -610.07	  188.11
    108.4000	  506.00	  502.29	 -611.04	  188.14
    108.4500	  488.00	  475.37	 -602.12	  188.18
    108.5000	  432.00	  430.83	 -613.58	  188.21
    108.5500	  391.00	  382.94	 -606.69	  188.25
    108.6000	  342.00	  341.35	 -614.10	  188.28
    108.6500	  315.00	  310.01	 -609.76	  188.31
    108.7000	  292.00	  287.80	 -610.55	  188.35
    108.7500	  275.00	  273.29	 -613.04	  188.38
    108.8000	  274.00	  264.28	 -605.03	  188.41
    108.8500	  259.00	  258.90	 -614.65	  188.45
    108.9000	  250.00	  255.75	 -620.50	  188.48
    108.9500	  258.00	  253.91	 -610.66	  188.51
    109.0000	  252.00	  252.79	 -615.54	  188.55
    109.0500	  255.00	  252.07	 -611.82	  188.58
    109.1000	  254.00	  251.60	 -612.35	  188.61
    109.1500	  253.00	  251.28	 -613.03	  188.65
    109.2000	  254.00	  251.12	 -611.87	  188.68
    109.2500	  252.00	  251.08	 -613.83	  188.71
    109.3000	  257.00	  251.77	 -609.52	  188.74
    109.3500	  250.00	  252.06	 -616.81	  188.78
    109.4000	  255.00	  252.52	 -612.27	  188.81
    109.4500	  251.00	  253.19	 -616.94	  188.84
    109.5000	  254.00	  253.30	 -614.05	  188.88
    109.5500	  260.00	  254.53	 -609.28	  188.91
    109.6000	  249.00	  256.16	 -621.91	  188.94
    109.6500	  253.00	  258.33	 -620.08	  188.97
    109.7000	  254.00	  261.28	 -622.03	  189.01
    109.7500	  259.00	  265.42	 -621.17	  189.04
    109.8000	  268.00	  271.38	 -618.13	  189.07
    109.8500	  270.00	  279.70	 -624.45	  189.10
    109.9000	  284.00	  292.13	 -622.88	  189.14
    109.9500	  305.00	  309.76	 -619.51	  189.17
    110.0000	  322.00	  334.43	 -627.18	  189.20
    110.0500	  364.00	  368.58	 -619.33	  189.23
    110.1000	  417.00	  414.94	 -612.69	  189.26
    110.1500	  470.00	  475.59	 -620.34	  189.30
    110.2000	  573.00	  552.04	 -593.79	  189.33
    110.2500	  678.00	  637.64	 -574.39	  189.36
    110.3000	  771.00	  723.55	 -567.30	  189.39
    110.3500	  847.00	  791.07	 -558.82	  189.42
    110.4000	  854.00	  816.49	 -577.24	  189.45
    110.4500	  794.00	  784.48	 -605.23	  189.49
    110.5000	  720.00	  704.75	 -599.50	  189.52
    110.5500	  611.00	  607.75	 -611.50	  189.55
    110.6000	  520.00	  521.19	 -615.94	  189.58
    110.6500	  463.00	  459.01	 -610.76	  189.61
    110.7000	  412.00	  424.03	 -626.78	  189.64
    110.7500	  399.00	  411.78	 -627.53	  189.67
    110.8000	  416.00	  416.04	 -614.79	  189.71
    110.8500	  428.00	  426.54	 -613.29	  189.74
    110.9000	  432.00	  433.01	 -615.76	  189.77
    110.9500	  420.00	  427.04	 -621.79	  189.80
    111.0000	  402.00	  408.31	 -621.06	  189.83
    111.0500	  364.00	  380.78	 -631.53	  189.86
    111.1000	  348.00	  354.44	 -621.19	  189.89
    111.1500	  334.00	  335.13	 -615.88	  189.92
    111.2000	  321.00	  325.74	 -619.49	  189.95
    111.2500	  330.00	  327.54	 -612.29	  189.98
    111.3000	  342.00	  340.87	 -613.62	  190.01
    111.3500	  380.00	  364.75	 -599.50	  190.05
    111.4000	  385.00	  396.09	 -625.84	  190.08
    111.4500	  420.00	  429.10	 -623.85	  190.11
    111.5000	  441.00	  455.43	 -629.18	  190.14
    111.5500	  465.00	  465.67	 -615.42	  190.17
    111.6000	  444.00	  453.99	 -624.74	  190.20
    111.6500	  406.00	  424.21	 -632.96	  190.23
    111.7000	  383.00	  387.54	 -619.29	  190.26
    111.7500	  345.00	  353.84	 -623.59	  190.29
    111.8000	  332.00	  327.81	 -610.56	  190.32
    111.8500	  321.00	  310.61	 -604.36	  190.35
    111.9000	  308.00	  301.06	 -607.81	  190.38
    111.9500	  292.00	  298.36	 -621.11	  190.41
    112.0000	  303.00	  302.24	 -613.99	  190.44
    112.0500	  314.00	  313.78	 -614.53	  190.47
    112.1000	  333.00	  335.66	 -617.41	  190.50
    112.1500	  379.00	  371.90	 -607.65	  190.53
    112.2000	  438.00	  426.36	 -603.11	  190.56
    112.2500	  505.00	  500.16	 -609.91	  190.59
    112.3000	  594.00	  588.81	 -609.56	  190.61
    112.3500	  659.00	  680.20	 -635.95	  190.64
    112.4000	  717.00	  754.88	 -652.63	  190.67
    112.4500	  738.00	  789.25	 -666.00	  190.70
    112.5000	  710.00	  766.55	 -671.30	  190.73
    112.5500	  642.00	  693.76	 -666.51	  190.76
    112.6000	  547.00	  598.60	 -666.35	  190.79
    112.6500	  492.00	  508.26	 -631.01	  190.82
    112.7000	  421.00	  436.10	 -629.85	  190.85
    112.7500	  386.00	  384.42	 -613.17	  190.88
    112.8000	  344.00	  354.76	 -625.51	  190.90
    112.8500	  337.00	  343.32	 -621.07	  190.93
    112.9000	  350.00	  349.01	 -613.76	  190.96
    112.9500	  364.00	  372.46	 -623.21	  190.99
    113.0000	  415.00	  414.91	 -614.66	  191.02
    113.0500	  506.00	  476.00	 -584.75	  191.05
    113.1000	  586.00	  550.99	 -579.74	  191.08
    113.1500	  674.00	  629.06	 -569.81	  191.10
    113.2000	  750.00	  693.12	 -557.87	  191.13
    113.2500	  787.00	  722.56	 -550.31	  191.16
    113.3000	  753.00	  702.06	 -563.81	  191.19
    113.3500	  682.00	  637.49	 -570.24	  191.22
    113.4000	  597.00	  552.24	 -569.99	  191.24
    113.4500	  499.00	  469.91	 -585.66	  191.27
    113.5000	  417.00	  402.74	 -600.49	  191.30
    113.5500	  362.00	  353.46	 -606.21	  191.33
    113.6000	  340.00	  320.05	 -594.80	  191.35
    113.6500	  302.00	  298.88	 -611.63	  191.38
    113.7000	  286.00	  286.54	 -615.29	  191.41
    113.7500	  280.00	  280.50	 -615.25	  191.44
    113.8000	  283.00	  279.18	 -610.93	  191.46
    113.8500	  276.00	  281.81	 -620.56	  191.49
    113.9000	  282.00	  287.46	 -620.21	  191.52
    113.9500	  284.00	  296.71	 -627.46	  191.55
    114.0000	  295.00	  308.10	 -627.85	  191.57
    114.0500	  310.00	  318.96	 -623.71	  191.60
    114.1000	  319.00	  326.65	 -622.40	  191.63
    114.1500	  321.00	  328.06	 -621.81	  191.65
    114.2000	  304.00	  323.76	 -634.51	  191.68
    114.2500	  298.00	  312.00	 -628.75	  191.71
    114.3000	  293.00	  298.61	 -620.36	  191.73
    114.3500	  283.00	  286.65	 -618.40	  191.76
    114.4000	  277.00	  277.49	 -615.24	  191.79
    114.4500	  269.00	  271.44	 -617.19	  191.81
    114.5000	  265.00	  268.39	 -618.14	  191.84
    114.5500	  277.00	  268.27	 -606.02	  191.87
    114.6000	  283.00	  271.26	 -603.01	  191.89
    114.6500	  283.00	  277.74	 -609.49	  191.92
    114.7000	  293.00	  288.00	 -609.75	  191.94
    114.7500	  303.00	  301.75	 -613.50	  191.97
    114.8000	  320.00	  317.65	 -612.40	  192.00
    114.8500	  316.00	  331.65	 -630.40	  192.02
    114.9000	  331.00	  343.58	 -627.33	  192.05
    114.9500	  346.00	  346.60	 -615.35	  192.07
    115.0000	  327.00	  339.39	 -627.14	  192.10
    115.0500	  328.00	  324.53	 -611.28	  192.12
    115.1000	  306.00	  307.24	 -615.99	  192.15
    115.1500	  291.00	  291.62	 -615.37	  192.18
    115.2000	  286.00	  279.44	 -608.19	  192.20
    115.2500	  278.00	  270.86	 -607.61	  192.23
    115.3000	  273.00	  265.29	 -607.04	  192.25
    115.3500	  267.00	  262.00	 -609.75	  192.28
    115.4000	  272.00	  260.30	 -603.05	  192.30
    115.4500	  257.00	  259.69	 -617.44	  192.33
    115.5000	  260.00	  259.80	 -614.55	  192.35
    115.5500	  265.00	  260.44	 -610.19	  192.38
    115.6000	  264.00	  261.49	 -612.24	  192.40
    115.6500	  272.00	  261.70	 -604.45	  192.43
    115.7000	  270.00	  263.67	 -608.42	  192.45
    115.7500	  268.00	  266.24	 -612.99	  192.47
    115.8000	  269.00	  269.61	 -615.36	  192.50
    115.8500	  287.00	  274.15	 -601.90	  192.52
    115.9000	  292.00	  280.45	 -603.20	  192.55
    115.9500	  295.00	  289.49	 -609.24	  192.57
    116.0000	  317.00	  302.78	 -600.53	  192.60
    116.0500	  335.00	  322.50	 -602.25	  192.62
    116.1000	  364.00	  351.51	 -602.26	  192.64
    116.1500	  410.00	  393.24	 -597.99	  192.67
    116.2000	  477.00	  452.11	 -589.86	  192.69
    116.2500	  556.00	  528.62	 -587.37	  192.71
    116.3000	  642.00	  622.73	 -595.48	  192.74
    116.3500	  755.00	  728.10	 -587.85	  192.76
    116.4000	  864.00	  833.00	 -583.75	  192.78
    116.4500	  946.00	  921.61	 -590.36	  192.81
    116.5000	  970.00	  973.43	 -618.18	  192.83
    116.5500	  941.00	  966.40	 -640.15	  192.85
    116.6000	  870.00	  893.97	 -638.72	  192.88
    116.6500	  759.00	  777.51	 -633.26	  192.90
    116.7000	  647.00	  652.39	 -620.14	  192.92
    116.7500	  540.00	  544.14	 -618.89	  192.95
    116.8000	  468.00	  463.08	 -609.83	  192.97
    116.8500	  418.00	  410.68	 -607.43	  192.99
    116.9000	  379.00	  383.12	 -618.87	  193.01
    116.9500	  381.00	  377.34	 -611.09	  193.04
    117.0000	  405.00	  389.78	 -599.53	  193.06
    117.0500	  446.00	  416.17	 -584.92	  193.08
    117.1000	  476.00	  450.56	 -589.31	  193.10
    117.1500	  523.00	  484.71	 -576.46	  193.13
    117.2000	  561.00	  508.45	 -562.20	  193.15
    117.2500	  555.00	  511.82	 -571.57	  193.17
    117.3000	  529.00	  490.70	 -576.45	  193.19
    117.3500	  485.00	  451.32	 -581.07	  193.21
    117.4000	  436.00	  406.54	 -585.29	  193.24
    117.4500	  398.00	  365.74	 -582.49	  193.26
    117.5000	  355.00	  333.24	 -592.99	  193.28
    117.5500	  322.00	  309.51	 -602.26	  193.30
    117.6000	  304.00	  293.25	 -604.00	  193.32
    117.6500	  285.00	  282.67	 -612.42	  193.34
    117.7000	  270.00	  276.11	 -620.86	  193.36
    117.7500	  278.00	  272.26	 -609.01	  193.39
    117.8000	  260.00	  270.22	 -624.97	  193.41
    117.8500	  268.00	  269.59	 -616.34	  193.43
    117.9000	  264.00	  269.66	 -620.41	  193.45
    117.9500	  265.00	  270.55	 -620.30	  193.47
    118.0000	  263.00	  273.18	 -624.93	  193.49
    118.0500	  267.00	  276.35	 -624.10	  193.51
    118.1000	  286.00	  281.62	 -610.37	  193.53
    118.1500	  293.00	  290.27	 -612.02	  193.55
    118.2000	  291.00	  304.23	 -627.98	  193.57
    118.2500	  319.00	  325.81	 -621.56	  193.59
    118.3000	  366.00	  357.04	 -605.79	  193.61
    118.3500	  411.00	  398.43	 -602.18	  193.63
    118.4000	  461.00	  447.69	 -601.44	  193.65
    118.4500	  489.00	  498.84	 -624.59	  193.67
    118.5000	  521.00	  542.24	 -635.99	  193.69
    118.5500	  555.00	  565.99	 -625.74	  193.71
    118.6000	  550.00	  560.54	 -625.29	  193.73
    118.6500	  511.00	  525.98	 -629.73	  193.75
    118.7000	  486.00	  475.14	 -603.89	  193.77
    118.7500	  436.00	  423.48	 -602.23	  193.79
    118.8000	  392.00	  380.53	 -603.28	  193.81
    118.8500	  368.00	  350.78	 -597.53	  193.83
    118.9000	  330.00	  334.46	 -619.21	  193.85
    118.9500	  328.00	  332.33	 -619.08	  193.87
    119.0000	  343.00	  338.45	 -610.20	  193.89
    119.0500	  371.00	  356.07	 -599.82	  193.90
    119.1000	  394.00	  380.17	 -600.92	  193.92
    119.1500	  441.00	  405.99	 -579.74	  193.94
    119.2000	  468.00	  427.21	 -573.96	  193.96
    119.2500	  469.00	  436.78	 -582.53	  193.98
    119.3000	  456.00	  429.72	 -588.47	  194.00
    119.3500	  416.00	  407.33	 -606.08	  194.02
    119.4000	  394.00	  377.13	 -597.88	  194.03
    119.4500	  361.00	  347.20	 -600.95	  194.05
    119.5000	  330.00	  322.19	 -606.94	  194.07
    119.5500	  312.00	  303.46	 -606.21	  194.09
    119.6000	  293.00	  290.67	 -612.42	  194.11
    119.6500	  285.00	  283.20	 -612.95	  194.12
    119.7000	  286.00	  278.10	 -606.85	  194.14
    119.7500	  275.00	  276.47	 -616.22	  194.16
    119.8000	  274.00	  277.09	 -617.84	  194.18
    119.8500	  281.00	  279.93	 -613.68	  194.19
    119.9000	  279.00	  285.32	 -621.07	  194.21
    119.9500	  298.00	  294.10	 -610.85	  194.23
    120.0000	  312.00	  308.25	 -611.00	  194.25
    120.0500	  331.00	  327.87	 -611.62	  194.26
    120.1000	  375.00	  355.06	 -594.81	  194.28
    120.1500	  406.00	  390.51	 -599.26	  194.30
    120.2000	  452.00	  433.31	 -596.06	  194.31
    120.2500	  506.00	  480.14	 -588.89	  194.33
    120.3000	  546.00	  525.13	 -593.88	  194.35
    120.3500	  568.00	  561.13	 -607.88	  194.36
    120.4000	  589.00	  581.08	 -606.83	  194.38
    120.4500	  588.00	  578.60	 -605.35	  194.39
    120.5000	  537.00	  551.28	 -629.03	  194.41
    120.5500	  498.00	  505.63	 -622.38	  194.43
    120.6000	  463.00	  454.54	 -606.29	  194.44
    120.6500	  402.00	  409.05	 -621.80	  194.46
    120.7000	  386.00	  374.70	 -603.45	  194.47
    120.7500	  361.00	  352.79	 -606.54	  194.49
    120.8000	  350.00	  342.41	 -607.16	  194.50
    120.8500	  330.00	  341.87	 -626.62	  194.52
    120.9000	  338.00	  349.24	 -625.99	  194.54
    120.9500	  359.00	  362.85	 -618.60	  194.55
    121.0000	  364.00	  381.47	 -632.22	  194.57
    121.0500	  385.00	  404.81	 -634.56	  194.58
    121.1000	  436.00	  433.18	 -611.93	  194.60
    121.1500	  474.00	  471.39	 -612.14	  194.61
    121.2000	  544.00	  522.11	 -592.86	  194.63
    121.2500	  647.00	  585.80	 -553.55	  194.64
    121.3000	  695.00	  657.03	 -576.78	  194.65
    121.3500	  763.00	  724.00	 -575.75	  194.67
    121.4000	  802.00	  770.19	 -582.94	  194.68
    121.4500	  812.00	  778.75	 -581.50	  194.70
    121.5000	  756.00	  741.96	 -600.71	  194.71
    121.5500	  669.00	  670.21	 -615.96	  194.73
    121.6000	  606.00	  585.72	 -594.47	  194.74
    121.6500	  527.00	  507.76	 -595.51	  194.75
    121.7000	  452.00	  446.32	 -609.07	  194.77
    121.7500	  409.00	  404.34	 -610.09	  194.78
    121.8000	  376.00	  380.81	 -619.56	  194.79
    121.8500	  368.00	  375.22	 -621.97	  194.81
    121.9000	  391.00	  385.39	 -609.14	  194.82
    121.9500	  400.00	  409.20	 -623.95	  194.83
    122.0000	  444.00	  443.40	 -614.15	  194.85
    122.0500	  481.00	  483.09	 -616.84	  194.86
    122.1000	  518.00	  521.62	 -618.37	  194.87
    122.1500	  556.00	  552.54	 -611.29	  194.89
    122.2000	  577.00	  567.14	 -604.89	  194.90
    122.2500	  575.00	  565.50	 -605.25	  194.91
    122.3000	  557.00	  554.66	 -612.41	  194.92
    122.3500	  552.00	  545.32	 -608.07	  194.94
    122.4000	  562.00	  543.86	 -596.61	  194.95
    122.4500	  592.00	  549.89	 -572.64	  194.96
    122.5000	  596.00	  557.10	 -575.85	  194.97
    122.5500	  583.00	  556.16	 -587.91	  194.98
    122.6000	  552.00	  539.18	 -601.93	  195.00
    122.6500	  512.00	  504.04	 -606.79	  195.01
    122.7000	  482.00	  458.13	 -590.88	  195.02
    122.7500	  439.00	  411.43	 -587.18	  195.03
    122.8000	  385.00	  370.68	 -600.43	  195.04
    122.8500	  342.00	  338.32	 -611.07	  195.05
    122.9000	  316.00	  314.52	 -613.27	  195.06
    122.9500	  300.00	  297.69	 -612.44	  195.07
    123.0000	  287.00	  286.65	 -614.40	  195.09
    123.0500	  279.00	  278.17	 -613.92	  195.10
    123.1000	  267.00	  273.08	 -620.83	  195.11
    123.1500	  269.00	  269.94	 -615.69	  195.12
    123.2000	  269.00	  267.68	 -613.43	  195.13
    123.2500	  271.00	  266.11	 -609.86	  195.14
    123.3000	  261.00	  264.97	 -618.72	  195.15
    123.3500	  261.00	  264.12	 -617.87	  195.16
    123.4000	  265.00	  263.48	 -613.23	  195.17
    123.4500	  252.00	  263.05	 -625.80	  195.18
    123.5000	  260.00	  262.81	 -617.56	  195.19
    123.5500	  263.00	  262.81	 -614.56	  195.20
    123.6000	  265.00	  263.11	 -612.86	  195.21
    123.6500	  260.00	  263.63	 -618.38	  195.22
    123.7000	  274.00	  264.85	 -605.60	  195.23
    123.7500	  267.00	  266.68	 -614.43	  195.24
    123.8000	  271.00	  269.20	 -612.95	  195.25
    123.8500	  274.00	  272.35	 -613.10	  195.25
    123.9000	  269.00	  275.97	 -621.72	  195.26
    123.9500	  264.00	  279.71	 -630.46	  195.27
    124.0000	  277.00	  283.12	 -620.87	  195.28
    124.0500	  272.00	  285.47	 -628.22	  195.29
    124.1000	  277.00	  287.14	 -624.89	  195.30
    124.1500	  282.00	  288.08	 -620.83	  195.31
    124.2000	  290.00	  289.27	 -614.02	  195.32
    124.2500	  293.00	  292.00	 -613.75	  195.32
    124.3000	  294.00	  297.68	 -618.43	  195.33
    124.3500	  300.00	  307.93	 -622.68	  195.34
    124.4000	  325.00	  324.93	 -614.68	  195.35
    124.4500	  348.00	  350.52	 -617.27	  195.35
    124.5000	  382.00	  386.96	 -619.71	  195.36
    124.5500	  412.00	  434.90	 -637.65	  195.37
    124.6000	  466.00	  493.67	 -642.42	  195.38
    124.6500	  513.00	  557.58	 -659.33	  195.38
    124.7000	  562.00	  619.61	 -672.36	  195.39
    124.7500	  585.00	  669.43	 -699.18	  195.40
    124.8000	  608.00	  695.87	 -702.62	  195.41
    124.8500	  619.00	  691.26	 -687.01	  195.41
    124.9000	  594.00	  659.45	 -680.20	  195.42
    124.9500	  567.00	  612.29	 -660.04	  195.43
    125.0000	  526.00	  563.97	 -652.72	  195.43
    125.0500	  518.00	  523.47	 -620.22	  195.44
    125.1000	  501.00	  494.07	 -607.82	  195.44
    125.1500	  480.00	  475.40	 -610.15	  195.45
    125.2000	  470.00	  464.94	 -609.69	  195.46
    125.2500	  465.00	  458.18	 -607.93	  195.46
    125.3000	  469.00	  453.06	 -598.81	  195.47
    125.3500	  458.00	  447.53	 -604.28	  195.47
    125.4000	  438.00	  443.47	 -620.22	  195.48
    125.4500	  448.00	  444.18	 -610.93	  195.48
    125.5000	  470.00	  451.75	 -596.50	  195.49
    125.5500	  470.00	  465.89	 -610.64	  195.49
    125.6000	  500.00	  484.05	 -598.80	  195.50
    125.6500	  505.00	  501.81	 -611.56	  195.50
    125.7000	  519.00	  513.54	 -609.29	  195.51
    125.7500	  517.00	  515.31	 -613.06	  195.51
    125.8000	  517.00	  503.30	 -601.05	  195.52
    125.8500	  502.00	  480.77	 -593.52	  195.52
    125.9000	  460.00	  451.69	 -606.44	  195.53
    125.9500	  410.00	  419.91	 -624.66	  195.53
    126.0000	  375.00	  389.06	 -628.81	  195.54
    126.0500	  347.00	  362.11	 -629.86	  195.54
    126.1000	  347.00	  340.81	 -608.56	  195.54
    126.1500	  318.00	  325.47	 -622.22	  195.55
    126.2000	  310.00	  315.80	 -620.55	  195.55
    126.2500	  302.00	  311.28	 -624.03	  195.55
    126.3000	  311.00	  312.59	 -616.34	  195.56
    126.3500	  326.00	  318.31	 -607.06	  195.56
    126.4000	  320.00	  330.25	 -625.00	  195.56
    126.4500	  334.00	  349.90	 -630.65	  195.57
    126.5000	  374.00	  378.99	 -619.74	  195.57
    126.5500	  444.00	  418.75	 -589.50	  195.57
    126.6000	  484.00	  469.06	 -599.81	  195.57
    126.6500	  561.00	  527.59	 -581.34	  195.58
    126.7000	  647.00	  589.35	 -557.10	  195.58
    126.7500	  699.00	  646.83	 -562.58	  195.58
    126.8000	  747.00	  690.37	 -558.12	  195.58
    126.8500	  767.00	  711.03	 -558.78	  195.59
    126.9000	  749.00	  704.00	 -569.75	  195.59
    126.9500	  723.00	  673.57	 -565.32	  195.59
    127.0000	  664.00	  632.17	 -582.92	  195.59
    127.0500	  619.00	  593.33	 -589.08	  195.59
    127.1000	  578.00	  565.76	 -602.51	  195.59
    127.1500	  553.00	  553.00	 -614.75	  195.59
    127.2000	  541.00	  552.46	 -626.21	  195.60
    127.2500	  530.00	  559.73	 -644.48	  195.60
    127.3000	  530.00	  570.50	 -655.25	  195.60
    127.3500	  525.00	  580.34	 -670.09	  195.60
    127.4000	  517.00	  584.71	 -682.46	  195.60
    127.4500	  493.00	  579.35	 -701.10	  195.60
    127.5000	  482.00	  560.76	 -693.51	  195.60
    127.5500	  456.00	  528.64	 -687.39	  195.60
    127.6000	  423.00	  486.27	 -678.02	  195.60
    127.6500	  383.00	  442.89	 -674.64	  195.60
    127.7000	  380.00	  403.22	 -637.97	  195.60
    127.7500	  343.00	  370.37	 -642.12	  195.60
    127.8000	  326.00	  345.06	 -633.81	  195.60
    127.8500	  314.00	  326.58	 -627.33	  195.60
    127.9000	  302.00	  314.00	 -626.75	  195.60
    127.9500	  303.00	  306.06	 -617.81	  195.60
    128.0000	  290.00	  301.82	 -626.57	  195.60
    128.0500	  290.00	  300.70	 -625.45	  195.59
    128.1000	  293.00	  302.17	 -623.92	  195.59
    128.1500	  277.00	  307.12	 -644.87	  195.59
    128.2000	  286.00	  315.98	 -644.73	  195.59
    128.2500	  309.00	  329.92	 -635.67	  195.59
    128.3000	  327.00	  350.46	 -638.21	  195.59
    128.3500	  357.00	  379.29	 -637.04	  195.59
    128.4000	  396.00	  417.00	 -635.75	  195.58
    128.4500	  468.00	  463.37	 -610.12	  195.58
    128.5000	  529.00	  516.07	 -601.82	  195.58
    128.5500	  590.00	  570.72	 -595.47	  195.58
    128.6000	  649.00	  620.37	 -586.12	  195.57
    128.6500	  699.00	  658.17	 -573.92	  195.57
    128.7000	  720.00	  676.85	 -571.60	  195.57
    128.7500	  705.00	  670.61	 -580.36	  195.57
    128.8000	  672.00	  643.42	 -586.17	  195.56
    128.8500	  635.00	  605.02	 -584.77	  195.56
    128.9000	  604.00	  567.69	 -578.44	  195.56
    128.9500	  564.00	  540.83	 -591.58	  195.55
    129.0000	  548.00	  529.20	 -595.95	  195.55
    129.0500	  537.00	  533.30	 -611.05	  195.54
    129.1000	  564.00	  550.44	 -601.19	  195.54
    129.1500	  588.00	  575.67	 -602.42	  195.54
    129.2000	  611.00	  602.58	 -606.33	  195.53
    129.2500	  636.00	  623.86	 -602.61	  195.53
    129.3000	  636.00	  632.41	 -611.16	  195.52
    129.3500	  606.00	  623.18	 -631.93	  195.52
    129.4000	  600.00	  596.03	 -610.78	  195.51
    129.4500	  560.00	  556.69	 -611.44	  195.51
    129.5000	  512.00	  513.99	 -616.74	  195.50
    129.5500	  473.00	  475.48	 -617.23	  195.50
    129.6000	  453.00	  445.57	 -607.32	  195.49
    129.6500	  428.00	  425.86	 -612.61	  195.49
    129.7000	  390.00	  416.28	 -641.03	  195.48
    129.7500	  393.00	  416.22	 -637.97	  195.48
    129.8000	  401.00	  424.06	 -637.81	  195.47
    129.8500	  395.00	  442.08	 -661.83	  195.47
    129.9000	  440.00	  469.69	 -644.44	  195.46
    129.9500	  479.00	  507.60	 -643.35	  195.45
    130.0000	  549.00	  555.37	 -621.12	  195.45
    130.0500	  618.00	  610.52	 -607.27	  195.44
    130.1000	  675.00	  667.85	 -607.60	  195.43
    130.1500	  746.00	  719.81	 -588.56	  195.43
    130.2000	  803.00	  757.21	 -568.96	  195.42
    130.2500	  805.00	  771.68	 -581.43	  195.41
    130.3000	  788.00	  757.74	 -584.49	  195.41
    130.3500	  748.00	  717.10	 -583.85	  195.40
    130.4000	  671.00	  658.00	 -601.75	  195.39
    130.4500	  621.00	  590.66	 -584.41	  195.38
    130.5000	  544.00	  525.49	 -596.24	  195.38
    130.5500	  460.00	  467.21	 -621.96	  195.37
    130.6000	  421.00	  418.32	 -612.07	  195.36
    130.6500	  384.00	  379.31	 -610.06	  195.35
    130.7000	  343.00	  349.39	 -621.14	  195.34
    130.7500	  321.00	  327.21	 -620.96	  195.34
    130.8000	  298.00	  311.27	 -628.02	  195.33
    130.8500	  278.00	  300.19	 -636.94	  195.32
    130.9000	  287.00	  292.85	 -620.60	  195.31
    130.9500	  280.00	  288.39	 -623.14	  195.30
    131.0000	  268.00	  286.20	 -632.95	  195.29
    131.0500	  281.00	  285.93	 -619.68	  195.28
    131.1000	  272.00	  287.41	 -630.16	  195.27
    131.1500	  287.00	  290.60	 -618.35	  195.26
    131.2000	  282.00	  295.51	 -628.26	  195.25
    131.2500	  284.00	  302.17	 -632.92	  195.24
    131.3000	  300.00	  310.52	 -625.27	  195.23
    131.3500	  303.00	  321.23	 -632.98	  195.22
    131.4000	  309.00	  332.62	 -638.37	  195.21
    131.4500	  322.00	  345.35	 -638.10	  195.20
    131.5000	  340.00	  359.36	 -634.11	  195.19
    131.5500	  347.00	  374.86	 -642.61	  195.18
    131.6000	  370.00	  392.80	 -637.55	  195.17
    131.6500	  401.00	  412.99	 -626.74	  195.16
    131.7000	  420.00	  436.45	 -631.20	  195.15
    131.7500	  451.00	  462.74	 -626.49	  195.14
    131.8000	  491.00	  488.97	 -612.72	  195.12
    131.8500	  508.00	  513.96	 -620.71	  195.11
    131.9000	  530.00	  532.38	 -617.13	  195.10
    131.9500	  531.00	  539.84	 -623.59	  195.09
    132.0000	  522.00	  533.12	 -625.87	  195.08
    132.0500	  484.00	  511.98	 -642.73	  195.06
    132.1000	  468.00	  479.83	 -626.58	  195.05
    132.1500	  427.00	  442.41	 -630.16	  195.04
    132.2000	  379.00	  405.13	 -640.88	  195.03
    132.2500	  365.00	  371.77	 -621.52	  195.01
    132.3000	  344.00	  343.89	 -614.64	  195.00
    132.3500	  321.00	  321.77	 -615.52	  194.99
    132.4000	  294.00	  304.82	 -625.57	  194.97
    132.4500	  291.00	  291.26	 -615.01	  194.96
    132.5000	  284.00	  281.92	 -612.67	  194.95
    132.5500	  264.00	  275.07	 -625.82	  194.93
    132.6000	  281.00	  270.07	 -603.82	  194.92
    132.6500	  261.00	  266.43	 -620.18	  194.91
    132.7000	  256.00	  263.78	 -622.53	  194.89
    132.7500	  261.00	  261.86	 -615.61	  194.88
    132.8000	  266.00	  260.42	 -609.17	  194.86
    132.8500	  264.00	  259.34	 -610.09	  194.85
    132.9000	  258.00	  258.51	 -615.26	  194.83
    132.9500	  262.00	  257.86	 -610.61	  194.82
    133.0000	  250.00	  257.22	 -621.97	  194.80
    133.0500	  261.00	  256.82	 -610.57	  194.79
    133.1000	  257.00	  256.52	 -614.27	  194.77
    133.1500	  253.00	  256.31	 -618.06	  194.76
    133.2000	  247.00	  256.18	 -623.93	  194.74
    133.2500	  259.00	  256.12	 -611.87	  194.73
    133.3000	  259.00	  256.12	 -611.87	  194.71
    133.3500	  256.00	  256.16	 -614.91	  194.69
    133.4000	  253.00	  256.22	 -617.97	  194.68
    133.4500	  256.00	  257.30	 -616.05	  194.66
    133.5000	  257.00	  256.16	 -613.91	  194.64
    133.5500	  261.00	  256.27	 -610.02	  194.63
    133.6000	  246.00	  256.40	 -625.15	  194.61
    133.6500	  247.00	  256.56	 -624.31	  194.59
    133.7000	  250.00	  256.71	 -621.46	  194.58
    133.7500	  270.00	  257.06	 -601.81	  194.56
    133.8000	  254.00	  257.56	 -618.31	  194.54
    133.8500	  245.00	  258.21	 -627.96	  194.52
    133.9000	  254.00	  259.04	 -619.79	  194.51
    133.9500	  274.00	  260.09	 -600.84	  194.49
    134.0000	  272.00	  261.52	 -604.27	  194.47
    134.0500	  253.00	  263.16	 -624.91	  194.45
    134.1000	  260.00	  265.22	 -619.97	  194.43
    134.1500	  272.00	  267.85	 -610.60	  194.41
    134.2000	  265.00	  271.29	 -621.04	  194.40
    134.2500	  267.00	  275.86	 -623.61	  194.38
    134.3000	  276.00	  282.04	 -620.79	  194.36
    134.3500	  280.00	  290.46	 -625.21	  194.34
    134.4000	  289.00	  302.59	 -628.34	  194.32
    134.4500	  318.00	  317.96	 -614.71	  194.30
    134.5000	  331.00	  338.17	 -621.92	  194.28
    134.5500	  366.00	  363.99	 -612.74	  194.26
    134.6000	  386.00	  395.84	 -624.59	  194.24
    134.6500	  426.00	  433.54	 -622.29	  194.22
    134.7000	  461.00	  476.19	 -629.94	  194.20
    134.7500	  495.00	  521.93	 -641.68	  194.18
    134.8000	  532.00	  568.13	 -650.88	  194.16
    134.8500	  591.00	  611.33	 -635.08	  194.14
    134.9000	  627.00	  647.47	 -635.22	  194.12
    134.9500	  616.00	  673.03	 -671.78	  194.09
    135.0000	  634.00	  685.17	 -665.92	  194.07
    135.0500	  668.00	  683.36	 -630.11	  194.05
    135.1000	  645.00	  669.31	 -639.06	  194.03
    135.1500	  620.00	  645.84	 -640.59	  194.01
    135.2000	  607.00	  615.41	 -623.16	  193.99
    135.2500	  560.00	  579.70	 -634.45	  193.96
    135.3000	  518.00	  540.06	 -636.81	  193.94
    135.3500	  470.00	  498.41	 -643.16	  193.92
    135.4000	  445.00	  456.57	 -626.32	  193.90
    135.4500	  398.00	  418.34	 -635.09	  193.87
    135.5000	  376.00	  384.78	 -623.53	  193.85
    135.5500	  336.00	  356.64	 -635.39	  193.83
    135.6000	  325.00	  333.92	 -623.67	  193.80
    135.6500	  301.00	  316.15	 -629.90	  193.78
    135.7000	  303.00	  302.59	 -614.34	  193.76
    135.7500	  275.00	  292.48	 -632.23	  193.73
    135.8000	  273.00	  285.06	 -626.81	  193.71
    135.8500	  288.00	  279.78	 -606.53	  193.68
    135.9000	  278.00	  276.07	 -612.82	  193.66
    135.9500	  274.00	  273.59	 -614.34	  193.64
    136.0000	  273.00	  272.08	 -613.83	  193.61
    136.0500	  260.00	  271.33	 -626.08	  193.59
    136.1000	  268.00	  271.22	 -617.97	  193.56
    136.1500	  276.00	  271.63	 -610.38	  193.54
    136.2000	  276.00	  272.50	 -611.25	  193.51
    136.2500	  294.00	  273.76	 -594.51	  193.49
    136.3000	  293.00	  275.38	 -597.13	  193.46
    136.3500	  277.00	  277.31	 -615.06	  193.43
    136.4000	  292.00	  279.54	 -602.29	  193.41
    136.4500	  284.00	  282.22	 -612.97	  193.38
    136.5000	  273.00	  285.19	 -626.94	  193.36
    136.5500	  291.00	  288.77	 -612.52	  193.33
    136.6000	  287.00	  293.30	 -621.05	  193.30
    136.6500	  303.00	  299.31	 -611.06	  193.28
    136.7000	  306.00	  307.56	 -616.31	  193.25
    136.7500	  315.00	  318.93	 -618.68	  193.22
    136.8000	  333.00	  334.38	 -616.13	  193.19
    136.8500	  367.00	  354.82	 -602.57	  193.17
    136.9000	  387.00	  380.91	 -608.66	  193.14
    136.9500	  404.00	  412.94	 -623.69	  193.11
    137.0000	  440.00	  450.54	 -625.29	  193.08
    137.0500	  480.00	  492.62	 -627.37	  193.06
    137.1000	  533.00	  537.19	 -618.94	  193.03
    137.1500	  601.00	  581.41	 -595.16	  193.00
    137.2000	  620.00	  621.83	 -616.58	  192.97
    137.2500	  647.00	  654.50	 -622.25	  192.94
    137.3000	  663.00	  675.60	 -627.35	  192.91
    137.3500	  652.00	  682.14	 -644.89	  192.88
    137.4000	  665.00	  672.43	 -622.18	  192.85
    137.4500	  630.00	  647.74	 -632.49	  192.82
    137.5000	  628.00	  611.91	 -598.66	  192.79
    137.5500	  577.00	  570.34	 -608.09	  192.76
    137.6000	  520.00	  528.48	 -623.23	  192.73
    137.6500	  472.00	  490.54	 -633.29	  192.70
    137.7000	  453.00	  459.08	 -620.83	  192.67
    137.7500	  413.00	  435.30	 -637.05	  192.64
    137.8000	  412.00	  419.31	 -622.06	  192.61
    137.8500	  396.00	  410.66	 -629.41	  192.58
    137.9000	  361.00	  408.64	 -662.39	  192.55
    137.9500	  370.00	  412.42	 -657.17	  192.52
    138.0000	  402.00	  421.21	 -633.96	  192.49
    138.0500	  389.00	  434.29	 -660.04	  192.46
    138.1000	  423.00	  450.96	 -642.71	  192.42
    138.1500	  452.00	  470.49	 -633.24	  192.39
    138.2000	  469.00	  492.01	 -637.76	  192.36
    138.2500	  498.00	  514.29	 -631.04	  192.33
    138.3000	  535.00	  535.59	 -615.34	  192.30
    138.3500	  538.00	  553.75	 -630.50	  192.26
    138.4000	  564.00	  566.33	 -617.08	  192.23
    138.4500	  572.00	  570.98	 -613.73	  192.20
    138.5000	  585.00	  565.96	 -595.71	  192.16
    138.5500	  574.00	  550.75	 -591.50	  192.13
    138.6000	  543.00	  526.43	 -598.18	  192.10
    138.6500	  495.00	  495.60	 -615.35	  192.06
    138.7000	  484.00	  460.84	 -591.59	  192.03
    138.7500	  460.00	  426.84	 -581.59	  191.99
    138.8000	  428.00	  395.16	 -581.91	  191.96
    138.8500	  375.00	  367.18	 -606.93	  191.93
    138.9000	  341.00	  343.45	 -617.20	  191.89
    138.9500	  340.00	  323.94	 -598.69	  191.86
    139.0000	  312.00	  308.26	 -611.01	  191.82
    139.0500	  309.00	  295.38	 -601.13	  191.79
    139.1000	  288.00	  285.70	 -612.45	  191.75
    139.1500	  271.00	  278.19	 -621.94	  191.72
    139.2000	  273.00	  272.40	 -614.15	  191.68
    139.2500	  267.00	  267.97	 -615.72	  191.64
    139.3000	  255.00	  264.61	 -624.36	  191.61
    139.3500	  266.00	  262.10	 -610.85	  191.57
    139.4000	  261.00	  260.25	 -614.00	  191.54
    139.4500	  269.00	  258.93	 -604.68	  191.50
    139.5000	  257.00	  258.04	 -615.79	  191.46
    139.5500	  249.00	  257.57	 -623.32	  191.43
    139.6000	  245.00	  257.34	 -627.09	  191.39
    139.6500	  259.00	  257.40	 -613.15	  191.35
    139.7000	  258.00	  258.02	 -614.77	  191.31
    139.7500	  259.00	  258.60	 -614.35	  191.28
    139.8000	  268.00	  259.42	 -606.17	  191.24
    139.8500	  279.00	  260.45	 -596.20	  191.20
    139.9000	  256.00	  261.65	 -620.40	  191.16
    139.9500	  259.00	  262.97	 -618.72	  191.12
    140.0000	  287.00	  264.36	 -592.11	  191.08
    140.0500	  269.00	  265.74	 -611.49	  191.05
    140.1000	  281.00	  267.05	 -600.80	  191.01
    140.1500	  268.00	  268.23	 -614.98	  190.97
    140.2000	  277.00	  269.27	 -607.02	  190.93
    140.2500	  278.00	  270.19	 -606.94	  190.89
    140.3000	  287.00	  271.06	 -598.81	  190.85
    140.3500	  277.00	  272.03	 -609.78	  190.81
    140.4000	  285.00	  273.53	 -603.28	  190.77
    140.4500	  284.00	  275.22	 -605.97	  190.73
    140.5000	  278.00	  277.45	 -614.20	  190.69
    140.5500	  288.00	  280.27	 -607.02	  190.65
    140.6000	  279.00	  283.59	 -619.34	  190.61
    140.6500	  287.00	  287.22	 -614.97	  190.57
    140.7000	  289.00	  290.91	 -616.66	  190.52
    140.7500	  308.00	  294.47	 -601.22	  190.48
    140.8000	  308.00	  297.27	 -604.02	  190.44
    140.8500	  288.00	  299.26	 -626.01	  190.40
    140.9000	  302.00	  299.86	 -612.61	  190.36
    140.9500	  295.00	  299.00	 -618.75	  190.32
    141.0000	  301.00	  296.70	 -610.45	  190.27
    141.0500	  303.00	  293.50	 -605.25	  190.23
    141.1000	  294.00	  289.12	 -609.87	  190.19
    141.1500	  287.00	  284.35	 -612.10	  190.14
    141.2000	  279.00	  279.70	 -615.45	  190.10
    141.2500	  279.00	  275.50	 -611.25	  190.06
    141.3000	  276.00	  272.07	 -610.82	  190.01
    141.3500	  275.00	  269.57	 -609.32	  189.97
    141.4000	  264.00	  268.12	 -618.87	  189.93
    141.4500	  274.00	  266.75	 -607.50	  189.88
    141.5000	  269.00	  267.48	 -613.23	  189.84
    141.5500	  269.00	  269.25	 -615.00	  189.79
    141.6000	  268.00	  271.99	 -618.74	  189.75
    141.6500	  261.00	  275.59	 -629.34	  189.70
    141.7000	  256.00	  279.88	 -638.63	  189.66
    141.7500	  284.00	  284.66	 -615.41	  189.61
    141.8000	  279.00	  289.62	 -625.37	  189.57
    141.8500	  280.00	  294.53	 -629.28	  189.52
    141.9000	  296.00	  298.90	 -617.65	  189.48
    141.9500	  297.00	  302.42	 -620.17	  189.43
    142.0000	  296.00	  304.76	 -623.51	  189.39
    142.0500	  308.00	  305.60	 -612.35	  189.34
    142.1000	  301.00	  304.78	 -618.53	  189.29
    142.1500	  300.00	  302.29	 -617.04	  189.25
    142.2000	  297.00	  298.30	 -616.05	  189.20
    142.2500	  300.00	  293.06	 -607.81	  189.15
    142.3000	  289.00	  287.26	 -613.01	  189.10
    142.3500	  290.00	  281.27	 -606.02	  189.06
    142.4000	  274.00	  275.46	 -616.21	  189.01
    142.4500	  275.00	  270.11	 -609.86	  188.96
    142.5000	  264.00	  265.37	 -616.12	  188.91
    142.5500	  262.00	  261.31	 -614.06	  188.87
    142.6000	  249.00	  258.05	 -623.80	  188.82
    142.6500	  251.00	  255.29	 -619.04	  188.77
    142.7000	  248.00	  253.06	 -619.81	  188.72
    142.7500	  252.00	  250.60	 -613.35	  188.67
    142.8000	  249.00	  249.23	 -614.98	  188.62
    142.8500	  249.00	  248.18	 -613.93	  188.57
    142.9000	  262.00	  247.38	 -600.13	  188.52
    142.9500	  251.00	  246.78	 -610.53	  188.47
    143.0000	  239.00	  246.35	 -622.10	  188.42
    143.0500	  263.00	  246.06	 -597.81	  188.37
    143.1000	  265.00	  245.88	 -595.63	  188.32
    143.1500	  240.00	  245.79	 -620.54	  188.27
    143.2000	  236.00	  245.77	 -624.52	  188.22
    143.2500	  250.00	  245.81	 -610.56	  188.17
    143.3000	  248.00	  245.90	 -612.65	  188.12
    143.3500	  248.00	  246.02	 -612.77	  188.07
    143.4000	  254.00	  246.18	 -606.93	  188.01
    143.4500	  262.00	  246.38	 -599.13	  187.96
    143.5000	  252.00	  246.60	 -609.35	  187.91
    143.5500	  246.00	  246.88	 -615.63	  187.86
    143.6000	  250.00	  247.20	 -611.95	  187.81
    143.6500	  251.00	  247.59	 -611.34	  187.75
    143.7000	  247.00	  248.07	 -615.82	  187.70
    143.7500	  248.00	  248.65	 -615.40	  187.65
    143.8000	  254.00	  249.36	 -610.11	  187.59
    143.8500	  236.00	  250.23	 -628.98	  187.54
    143.9000	  251.00	  251.32	 -615.07	  187.49
    143.9500	  247.00	  252.67	 -620.42	  187.43
    144.0000	  254.00	  254.36	 -615.11	  187.38
    144.0500	  248.00	  256.67	 -623.42	  187.32
    144.1000	  259.00	  259.31	 -615.06	  187.27
    144.1500	  259.00	  262.60	 -618.35	  187.22
    144.2000	  274.00	  266.67	 -607.42	  187.16
    144.2500	  263.00	  271.65	 -623.40	  187.11
    144.3000	  287.00	  277.69	 -605.44	  187.05
    144.3500	  283.00	  284.91	 -616.66	  186.99
    144.4000	  281.00	  293.38	 -627.13	  186.94
    144.4500	  296.00	  303.15	 -621.90	  186.88
    144.5000	  292.00	  314.19	 -636.94	  186.83
    144.5500	  323.00	  326.37	 -618.12	  186.77
    144.6000	  330.00	  339.48	 -624.23	  186.71
    144.6500	  339.00	  353.20	 -628.95	  186.66
    144.7000	  358.00	  367.10	 -623.85	  186.60
    144.7500	  349.00	  380.70	 -646.45	  186.54
    144.8000	  365.00	  393.41	 -643.16	  186.49
    144.8500	  399.00	  404.71	 -620.46	  186.43
    144.9000	  406.00	  414.03	 -622.78	  186.37
    144.9500	  428.00	  420.89	 -607.64	  186.31
    145.0000	  413.00	  424.98	 -626.73	  186.25
    145.0500	  439.00	  426.16	 -601.91	  186.20
    145.1000	  418.00	  424.56	 -621.31	  186.14
    145.1500	  425.00	  420.59	 -610.34	  186.08
    145.2000	  411.00	  414.92	 -618.67	  186.02
    145.2500	  417.00	  408.40	 -606.15	  185.96
    145.3000	  391.00	  401.98	 -625.73	  185.90
    145.3500	  393.00	  396.52	 -618.27	  185.84
    145.4000	  386.00	  392.73	 -621.48	  185.78
    145.4500	  359.00	  391.09	 -646.84	  185.72
    145.5000	  381.00	  391.82	 -625.57	  185.66
    145.5500	  363.00	  394.95	 -646.70	  185.60
    145.6000	  364.00	  400.30	 -651.05	  185.54
    145.6500	  375.00	  407.46	 -647.21	  185.48
    145.7000	  379.00	  416.27	 -652.02	  185.42
    145.7500	  392.00	  426.18	 -648.93	  185.36
    145.8000	  402.00	  436.76	 -649.51	  185.30
    145.8500	  436.00	  447.63	 -626.38	  185.23
    145.9000	  451.00	  458.47	 -622.22	  185.17
    145.9500	  463.00	  469.04	 -620.79	  185.11
    146.0000	  452.00	  479.28	 -642.03	  185.05
    146.0500	  449.00	  489.22	 -654.97	  184.98
    146.1000	  479.00	  499.04	 -634.79	  184.92
    146.1500	  485.00	  508.97	 -638.72	  184.86
    146.2000	  484.00	  519.21	 -649.96	  184.80
    146.2500	  472.00	  529.84	 -672.59	  184.73
    146.3000	  508.00	  540.76	 -647.51	  184.67
    146.3500	  518.00	  551.59	 -648.34	  184.60
    146.4000	  523.00	  561.83	 -653.58	  184.54
    146.4500	  561.00	  570.79	 -624.54	  184.48
    146.5000	  559.00	  577.72	 -633.47	  184.41
    146.5500	  573.00	  581.92	 -623.67	  184.35
    146.6000	  545.00	  582.79	 -652.54	  184.28
    146.6500	  561.00	  579.92	 -633.67	  184.22
    146.7000	  568.00	  573.13	 -619.88	  184.15
    146.7500	  573.00	  562.48	 -604.23	  184.09
    146.8000	  562.00	  548.46	 -601.21	  184.02
    146.8500	  573.00	  531.06	 -572.81	  183.95
    146.9000	  565.00	  511.11	 -560.86	  183.89
    146.9500	  499.00	  489.37	 -605.12	  183.82
    147.0000	  496.00	  466.58	 -585.33	  183.76
    147.0500	  488.00	  443.74	 -570.49	  183.69
    147.1000	  449.00	  421.60	 -587.35	  183.62
    147.1500	  442.00	  401.06	 -573.81	  183.55
    147.2000	  391.00	  382.22	 -605.97	  183.49
    147.2500	  387.00	  365.63	 -593.38	  183.42
    147.3000	  390.00	  351.44	 -576.19	  183.35
    147.3500	  359.00	  339.67	 -595.42	  183.28
    147.4000	  338.00	  330.20	 -606.95	  183.21
    147.4500	  321.00	  322.83	 -616.58	  183.15
    147.5000	  322.00	  317.31	 -610.06	  183.08
    147.5500	  327.00	  313.34	 -601.09	  183.01
    147.6000	  338.00	  310.61	 -587.36	  182.94
    147.6500	  306.00	  308.81	 -617.56	  182.87
    147.7000	  290.00	  307.68	 -632.43	  182.80
    147.7500	  320.00	  306.93	 -601.68	  182.73
    147.8000	  308.00	  306.34	 -613.09	  182.66
    147.8500	  300.00	  306.21	 -620.96	  182.59
    147.9000	  307.00	  305.42	 -613.17	  182.52
    147.9500	  306.00	  304.38	 -613.13	  182.45
    148.0000	  314.00	  303.06	 -603.81	  182.38
    148.0500	  318.00	  301.52	 -598.27	  182.31
    148.1000	  298.00	  299.76	 -616.51	  182.23
    148.1500	  313.00	  297.97	 -599.72	  182.16
    148.2000	  303.00	  296.29	 -608.04	  182.09
    148.2500	  302.00	  294.88	 -607.63	  182.02
    148.3000	  333.00	  293.89	 -575.64	  181.95
    148.3500	  285.00	  293.43	 -623.18	  181.87
    148.4000	  312.00	  293.84	 -596.59	  181.80
    148.4500	  312.00	  294.75	 -597.50	  181.73
    148.5000	  285.00	  296.07	 -625.82	  181.66
    148.5500	  290.00	  297.88	 -622.63	  181.58
    148.6000	  288.00	  300.04	 -626.79	  181.51
    148.6500	  294.00	  302.41	 -623.16	  181.43
    148.7000	  314.00	  304.80	 -605.55	  181.36
    148.7500	  300.00	  307.02	 -621.77	  181.29
    148.8000	  306.00	  308.87	 -617.62	  181.21
    148.8500	  293.00	  310.18	 -631.93	  181.14
    148.9000	  299.00	  310.77	 -626.52	  181.06
    148.9500	  328.00	  310.53	 -597.28	  180.99
    149.0000	  325.00	  309.36	 -599.11	  180.91
    149.0500	  328.00	  307.23	 -593.98	  180.84
    149.1000	  317.00	  304.20	 -601.95	  180.76
    149.1500	  292.00	  300.36	 -623.11	  180.68
    149.2000	  321.00	  295.89	 -589.64	  180.61
    149.2500	  291.00	  290.99	 -614.74	  180.53
    149.3000	  302.00	  285.86	 -598.61	  180.45
    149.3500	  291.00	  280.73	 -604.48	  180.38
    149.4000	  297.00	  275.77	 -593.52	  180.30
    149.4500	  301.00	  271.12	 -584.87	  180.22
    149.5000	  270.00	  266.88	 -611.63	  180.14
    149.5500	  262.00	  263.13	 -615.88	  180.07
    149.6000	  277.00	  259.88	 -597.63	  179.99
    149.6500	  258.00	  257.14	 -613.89	  179.91
    149.7000	  258.00	  254.91	 -611.66	  179.83
    149.7500	  243.00	  253.15	 -624.90	  179.75
    149.8000	  269.00	  251.86	 -597.61	  179.67
    149.8500	  257.00	  250.99	 -608.74	  179.59
    149.9000	  257.00	  250.54	 -608.29	  179.51
    149.9500	  240.00	  250.50	 -625.25	  179.43
    150.0000	  282.00	  250.86	 -583.61	  179.35
    150.0500	  245.00	  251.62	 -621.37	  179.27
    150.1000	  243.00	  252.82	 -624.57	  179.19
    150.1500	  260.00	  254.47	 -609.22	  179.11
    150.2000	  255.00	  256.59	 -616.34	  179.03
    150.2500	  275.00	  259.22	 -598.97	  178.95
    150.3000	  255.00	  262.38	 -622.13	  178.87
    150.3500	  270.00	  266.08	 -610.83	  178.79
    150.4000	  286.00	  270.33	 -599.08	  178.71
    150.4500	  271.00	  275.07	 -618.82	  178.62
    150.5000	  258.00	  280.37	 -637.12	  178.54
    150.5500	  309.00	  286.14	 -591.89	  178.46
    150.6000	  299.00	  292.30	 -608.05	  178.38
    150.6500	  297.00	  298.45	 -616.20	  178.29
    150.7000	  304.00	  305.05	 -615.80	  178.21
    150.7500	  319.00	  311.67	 -607.42	  178.13
    150.8000	  314.00	  318.13	 -618.88	  178.04
    150.8500	  290.00	  324.24	 -648.99	  177.96
    150.9000	  338.00	  329.81	 -606.56	  177.88
    150.9500	  316.00	  334.65	 -633.40	  177.79
    151.0000	  341.00	  338.56	 -612.31	  177.71
    151.0500	  384.00	  341.36	 -572.11	  177.62
    151.1000	  360.00	  342.92	 -597.67	  177.54
    151.1500	  367.00	  343.11	 -590.86	  177.45
    151.2000	  383.00	  341.89	 -573.64	  177.37
    151.2500	  366.00	  339.25	 -588.00	  177.28
    151.3000	  369.00	  335.26	 -581.01	  177.19
    151.3500	  363.00	  330.08	 -581.83	  177.11
    151.4000	  332.00	  323.90	 -606.65	  177.02
    151.4500	  325.00	  316.97	 -606.72	  176.93
    151.5000	  334.00	  309.56	 -590.31	  176.85
    151.5500	  373.00	  301.94	 -543.69	  176.76
    151.6000	  336.00	  294.37	 -573.12	  176.67
    151.6500	  313.00	  287.05	 -588.80	  176.58
    151.7000	  339.00	  280.14	 -555.89	  176.50
    151.7500	  325.00	  273.76	 -563.51	  176.41
    151.8000	  307.00	  267.73	 -575.48	  176.32
    151.8500	  277.00	  262.57	 -600.32	  176.23
    151.9000	  286.00	  258.04	 -586.79	  176.14
    151.9500	  305.00	  254.12	 -563.87	  176.05
    152.0000	  277.00	  250.75	 -588.50	  175.96
    152.0500	  262.00	  247.88	 -600.63	  175.87
    152.1000	  262.00	  245.45	 -598.20	  175.78
    152.1500	  241.00	  243.41	 -617.16	  175.69
    152.2000	  251.00	  241.70	 -605.45	  175.60
    152.2500	  260.00	  240.26	 -595.01	  175.51
    152.3000	  245.00	  239.05	 -608.80	  175.42
    152.3500	  249.00	  238.03	 -603.78	  175.33
    152.4000	  260.00	  237.17	 -591.92	  175.24
    152.4500	  256.00	  236.29	 -595.04	  175.15
    152.5000	  242.00	  235.67	 -608.42	  175.06
    152.5500	  258.00	  235.14	 -591.89	  174.96
    152.6000	  248.00	  234.53	 -601.28	  174.87
    152.6500	  235.00	  234.13	 -613.88	  174.78
    152.7000	  245.00	  233.81	 -603.56	  174.69
    152.7500	  248.00	  233.55	 -600.30	  174.59
    152.8000	  281.00	  233.34	 -567.09	  174.50
    152.8500	  228.00	  233.17	 -619.92	  174.41
    152.9000	  230.00	  232.71	 -617.46	  174.31
    152.9500	  212.00	  232.62	 -635.37	  174.22
    153.0000	  237.00	  232.56	 -610.31	  174.13
    153.0500	  244.00	  232.52	 -603.27	  174.03
    153.1000	  231.00	  232.51	 -616.26	  173.94
    153.1500	  266.00	  232.51	 -581.26	  173.84
    153.2000	  231.00	  232.55	 -616.30	  173.75
    153.2500	  234.00	  232.61	 -613.36	  173.65
    153.3000	  247.00	  232.69	 -600.44	  173.56
    153.3500	  264.00	  232.80	 -583.55	  173.46
    153.4000	  247.00	  232.93	 -600.68	  173.36
    153.4500	  261.00	  233.09	 -586.84	  173.27
    153.5000	  223.00	  233.28	 -625.03	  173.17
    153.5500	  242.00	  233.50	 -606.25	  173.07
    153.6000	  271.00	  233.76	 -577.51	  172.98
    153.6500	  247.00	  234.07	 -601.82	  172.88
    153.7000	  249.00	  234.42	 -600.17	  172.78
    153.7500	  251.00	  234.82	 -598.57	  172.68
    153.8000	  232.00	  235.28	 -618.03	  172.59
    153.8500	  225.00	  235.81	 -625.56	  172.49
    153.9000	  255.00	  236.41	 -596.16	  172.39
    153.9500	  209.00	  237.09	 -642.84	  172.29
    154.0000	  266.00	  220.70	 -614.75	  172.19
    154.0500	  255.00	  220.60	 -614.75	  172.09
    154.1000	  273.00	  220.50	 -614.75	  171.99
    154.1500	  250.00	  220.40	 -614.75	  171.89
    154.2000	  234.00	  220.30	 -614.75	  171.79
    154.2500	  257.00	  220.20	 -614.75	  171.69
    154.3000	  250.00	  220.10	 -614.75	  171.59
    154.3500	  270.00	  220.00	 -614.75	  171.49
    154.4000	  262.00	  219.90	 -614.75	  171.39
    154.4500	  281.00	  219.80	 -614.75	  171.29
    154.5000	  257.00	  219.70	 -614.75	  171.19
    154.5500	  260.00	  219.60	 -614.75	  171.08
    154.6000	  257.00	  219.49	 -614.75	  170.98
    154.6500	  242.00	  219.39	 -614.75	  170.88
    154.7000	  255.00	  219.29	 -614.75	  170.78
    154.7500	  250.00	  219.19	 -614.75	  170.67
    154.8000	  274.00	  219.08	 -614.75	  170.57
    154.8500	  288.00	  218.98	 -614.75	  170.47
    154.9000	  275.00	  218.88	 -614.75	  170.36
    154.9500	  277.00	  218.77	 -614.75	  170.26
    155.0000	  278.00	  218.67	 -614.75	  170.16
    155.0500	  264.00	  218.56	 -614.75	  170.05
    155.1000	  298.00	  218.46	 -614.75	  169.95
    155.1500	  312.00	  218.35	 -614.75	  169.84
    155.2000	  282.00	  218.25	 -614.75	  169.74
    155.2500	  314.00	  218.14	 -614.75	  169.63
    155.3000	  341.00	  218.04	 -614.75	  169.53
    155.3500	  314.00	  217.93	 -614.75	  169.42
    155.4000	  295.00	  217.83	 -614.75	  169.31
    155.4500	  326.00	  217.72	 -614.75	  169.21
     20.3862	        	        	        	        	       0	(  1  0  1)	  0  1 :  1
     25.8197	        	        	        	        	       0	(  0  1  1)	  0  1 :  1
     25.9755	        	        	        	        	       0	(  2  0  0)	  0  1 :  1
     28.9763	        	        	        	        	       0	(  1  1  1)	  0  1 :  1
     30.5328	        	        	        	        	       0	(  2  0  1)	  0  1 :  1
     31.8086	        	        	        	        	       0	(  0  0  2)	  0  1 :  1
     33.2386	        	        	        	        	       0	(  2  1  0)	  0  1 :  1
     34.4674	        	        	        	        	       0	(  1  0  2)	  0  1 :  1
     36.9913	        	        	        	        	       0	(  2  1  1)	  0  1 :  1
     40.3752	        	        	        	        	       0	(  1  1  2)	  0  1 :  1
     41.4096	        	        	        	        	       0	(  0  2  0)	  0  1 :  1
     41.5546	        	        	        	        	       0	(  2  0  2)	  0  1 :  1
     42.7369	        	        	        	        	       0	(  3  0  1)	  0  1 :  1
     46.6129	        	        	        	        	       0	(  1  2  1)	  0  1 :  1
     46.7119	        	        	        	        	       0	(  2  1  2)	  0  1 :  1
     47.7926	        	        	        	        	       0	(  3  1  1)	  0  1 :  1
     49.5748	        	        	        	        	       0	(  2  2  0)	  0  1 :  1
     50.5051	        	        	        	        	       0	(  1  0  3)	  0  1 :  1
     51.5826	        	        	        	        	       0	(  3  0  2)	  0  1 :  1
     52.3562	        	        	        	        	       0	(  2  2  1)	  0  1 :  1
     53.1867	        	        	        	        	       0	(  0  2  2)	  0  1 :  1
     53.2215	        	        	        	        	       0	(  0  1  3)	  0  1 :  1
     53.5267	        	        	        	        	       0	(  4  0  0)	  0  1 :  1
     54.9835	        	        	        	        	       0	(  1  2  2)	  0  1 :  1
     55.0175	        	        	        	        	       0	(  1  1  3)	  0  1 :  1
     55.9565	        	        	        	        	       0	(  2  0  3)	  0  1 :  1
     56.0341	        	        	        	        	       0	(  3  1  2)	  0  1 :  1
     56.1695	        	        	        	        	       0	(  4  0  1)	  0  1 :  1
     57.8757	        	        	        	        	       0	(  4  1  0)	  0  1 :  1
     60.1578	        	        	        	        	       0	(  2  2  2)	  0  1 :  1
     60.1900	        	        	        	        	       0	(  2  1  3)	  0  1 :  1
     60.3935	        	        	        	        	       0	(  4  1  1)	  0  1 :  1
     61.0691	        	        	        	        	       0	(  3  2  1)	  0  1 :  1
     63.6672	        	        	        	        	       0	(  4  0  2)	  0  1 :  1
     64.3540	        	        	        	        	       0	(  3  0  3)	  0  1 :  1
     66.4931	        	        	        	        	       0	(  0  3  1)	  0  1 :  1
     66.5843	        	        	        	        	       0	(  0  0  4)	  0  1 :  1
     67.3429	        	        	        	        	       0	(  1  2  3)	  0  1 :  1
     67.6123	        	        	        	        	       0	(  4  1  2)	  0  1 :  1
     68.0714	        	        	        	        	       0	(  1  3  1)	  0  1 :  1
     68.1616	        	        	        	        	       0	(  1  0  4)	  0  1 :  1
     68.2485	        	        	        	        	       0	(  3  2  2)	  0  1 :  1
     68.2785	        	        	        	        	       0	(  3  1  3)	  0  1 :  1
     69.9019	        	        	        	        	       0	(  4  2  0)	  0  1 :  1
     70.4306	        	        	        	        	       0	(  2  3  0)	  0  1 :  1
     70.8472	        	        	        	        	       0	(  5  0  1)	  0  1 :  1
     71.9848	        	        	        	        	       0	(  1  1  4)	  0  1 :  1
     72.0020	        	        	        	        	       0	(  2  2  3)	  0  1 :  1
     72.1879	        	        	        	        	       0	(  4  2  1)	  0  1 :  1
     72.7095	        	        	        	        	       0	(  2  3  1)	  0  1 :  1
     72.7971	        	        	        	        	       0	(  2  0  4)	  0  1 :  1
     74.6116	        	        	        	        	       0	(  5  1  1)	  0  1 :  1
     74.9149	        	        	        	        	       0	(  1  3  2)	  0  1 :  1
     75.2302	        	        	        	        	       0	(  4  0  3)	  0  1 :  1
     76.5247	        	        	        	        	       0	(  2  1  4)	  0  1 :  1
     77.5914	        	        	        	        	       0	(  5  0  2)	  0  1 :  1
     78.8904	        	        	        	        	       0	(  4  2  2)	  0  1 :  1
     78.9188	        	        	        	        	       0	(  4  1  3)	  0  1 :  1
     79.3969	        	        	        	        	       0	(  2  3  2)	  0  1 :  1
     79.5191	        	        	        	        	       0	(  3  2  3)	  0  1 :  1
     80.2041	        	        	        	        	       0	(  3  3  1)	  0  1 :  1
     80.2890	        	        	        	        	       0	(  3  0  4)	  0  1 :  1
     81.2488	        	        	        	        	       0	(  5  1  2)	  0  1 :  1
     81.5769	        	        	        	        	       0	(  0  2  4)	  0  1 :  1
     83.0466	        	        	        	        	       0	(  1  2  4)	  0  1 :  1
     83.9190	        	        	        	        	       0	(  3  1  4)	  0  1 :  1
     84.4355	        	        	        	        	       0	(  0  3  3)	  0  1 :  1
     85.0525	        	        	        	        	       0	(  6  0  0)	  0  1 :  1
     85.5758	        	        	        	        	       0	(  5  2  1)	  0  1 :  1
     85.8973	        	        	        	        	       0	(  1  3  3)	  0  1 :  1
     86.7379	        	        	        	        	       0	(  3  3  2)	  0  1 :  1
     87.2203	        	        	        	        	       0	(  6  0  1)	  0  1 :  1
     87.4325	        	        	        	        	       0	(  2  2  4)	  0  1 :  1
     88.1470	        	        	        	        	       0	(  1  0  5)	  0  1 :  1
     88.2845	        	        	        	        	       0	(  4  3  0)	  0  1 :  1
     88.5010	        	        	        	        	       0	(  5  0  3)	  0  1 :  1
     88.6539	        	        	        	        	       0	(  6  1  0)	  0  1 :  1
     89.7733	        	        	        	        	       0	(  4  2  3)	  0  1 :  1
     90.1468	        	        	        	        	       0	(  0  4  0)	  0  1 :  1
     90.2708	        	        	        	        	       0	(  2  3  3)	  0  1 :  1
     90.2862	        	        	        	        	       0	(  0  1  5)	  0  1 :  1
     90.4478	        	        	        	        	       0	(  4  3  1)	  0  1 :  1
     90.5315	        	        	        	        	       0	(  4  0  4)	  0  1 :  1
     90.8171	        	        	        	        	       0	(  6  1  1)	  0  1 :  1
     91.7433	        	        	        	        	       0	(  1  1  5)	  0  1 :  1
     92.0695	        	        	        	        	       0	(  5  2  2)	  0  1 :  1
     92.0974	        	        	        	        	       0	(  5  1  3)	  0  1 :  1
     92.5184	        	        	        	        	       0	(  2  0  5)	  0  1 :  1
     93.7131	        	        	        	        	       0	(  6  0  2)	  0  1 :  1
     93.7695	        	        	        	        	       0	(  1  4  1)	  0  1 :  1
     94.1310	        	        	        	        	       0	(  4  1  4)	  0  1 :  1
     94.7227	        	        	        	        	       0	(  3  2  4)	  0  1 :  1
     95.9852	        	        	        	        	       0	(  2  4  0)	  0  1 :  1
     96.1254	        	        	        	        	       0	(  2  1  5)	  0  1 :  1
     96.9545	        	        	        	        	       0	(  4  3  2)	  0  1 :  1
     97.3268	        	        	        	        	       0	(  6  1  2)	  0  1 :  1
     97.5775	        	        	        	        	       0	(  3  3  3)	  0  1 :  1
     98.1653	        	        	        	        	       0	(  2  4  1)	  0  1 :  1
     98.8349	        	        	        	        	       0	(  0  4  2)	  0  1 :  1
     99.4857	        	        	        	        	       0	(  6  2  0)	  0  1 :  1
     99.8511	        	        	        	        	       0	(  3  0  5)	  0  1 :  1
    100.3126	        	        	        	        	       0	(  1  4  2)	  0  1 :  1
    101.1129	        	        	        	        	       0	(  1  3  4)	  0  1 :  1
    101.6870	        	        	        	        	       0	(  6  2  1)	  0  1 :  1
    102.6345	        	        	        	        	       0	(  1  2  5)	  0  1 :  1
    102.9975	        	        	        	        	       0	(  5  2  3)	  0  1 :  1
    103.5248	        	        	        	        	       0	(  3  1  5)	  0  1 :  1
    103.6910	        	        	        	        	       0	(  5  3  1)	  0  1 :  1
    103.7772	        	        	        	        	       0	(  5  0  4)	  0  1 :  1
    104.6887	        	        	        	        	       0	(  6  0  3)	  0  1 :  1
    104.7926	        	        	        	        	       0	(  2  4  2)	  0  1 :  1
    105.0913	        	        	        	        	       0	(  4  2  4)	  0  1 :  1
    105.6075	        	        	        	        	       0	(  2  3  4)	  0  1 :  1
    105.6165	        	        	        	        	       0	(  3  4  1)	  0  1 :  1
    106.3852	        	        	        	        	       0	(  7  0  1)	  0  1 :  1
    107.1598	        	        	        	        	       0	(  2  2  5)	  0  1 :  1
    107.5135	        	        	        	        	       0	(  5  1  4)	  0  1 :  1
    108.0535	        	        	        	        	       0	(  4  3  3)	  0  1 :  1
    108.4131	        	        	        	        	       0	(  6  2  2)	  0  1 :  1
    108.4426	        	        	        	        	       0	(  6  1  3)	  0  1 :  1
    110.1746	        	        	        	        	       0	(  7  1  1)	  0  1 :  1
    110.4347	        	        	        	        	       0	(  4  0  5)	  0  1 :  1
    110.4870	        	        	        	        	       0	(  5  3  2)	  0  1 :  1
    110.9535	        	        	        	        	       0	(  0  0  6)	  0  1 :  1
    111.5838	        	        	        	        	       0	(  1  4  3)	  0  1 :  1
    112.4895	        	        	        	        	       0	(  3  4  2)	  0  1 :  1
    112.5228	        	        	        	        	       0	(  1  0  6)	  0  1 :  1
    113.2917	        	        	        	        	       0	(  7  0  2)	  0  1 :  1
    113.3435	        	        	        	        	       0	(  3  3  4)	  0  1 :  1
    114.1735	        	        	        	        	       0	(  4  4  0)	  0  1 :  1
    114.3266	        	        	        	        	       0	(  4  1  5)	  0  1 :  1
    114.9761	        	        	        	        	       0	(  3  2  5)	  0  1 :  1
    116.3715	        	        	        	        	       0	(  2  4  3)	  0  1 :  1
    116.4780	        	        	        	        	       0	(  1  1  6)	  0  1 :  1
    116.5693	        	        	        	        	       0	(  4  4  1)	  0  1 :  1
    117.2720	        	        	        	        	       0	(  7  1  2)	  0  1 :  1
    117.3473	        	        	        	        	       0	(  2  0  6)	  0  1 :  1
    118.6042	        	        	        	        	       0	(  6  3  0)	  0  1 :  1
    119.2966	        	        	        	        	       0	(  5  2  4)	  0  1 :  1
    120.3153	        	        	        	        	       0	(  6  2  3)	  0  1 :  1
    120.4821	        	        	        	        	       0	(  0  3  5)	  0  1 :  1
    121.1006	        	        	        	        	       0	(  6  3  1)	  0  1 :  1
    121.1984	        	        	        	        	       0	(  6  0  4)	  0  1 :  1
    121.4796	        	        	        	        	       0	(  2  1  6)	  0  1 :  1
    122.1893	        	        	        	        	       0	(  1  3  5)	  0  1 :  1
    122.2286	        	        	        	        	       0	(  7  2  1)	  0  1 :  1
    122.6088	        	        	        	        	       0	(  5  3  3)	  0  1 :  1
    124.1000	        	        	        	        	       0	(  4  4  2)	  0  1 :  1
    124.8502	        	        	        	        	       0	(  3  4  3)	  0  1 :  1
    125.0558	        	        	        	        	       0	(  4  3  4)	  0  1 :  1
    125.3208	        	        	        	        	       0	(  5  0  5)	  0  1 :  1
    125.5086	        	        	        	        	       0	(  6  1  4)	  0  1 :  1
    125.7562	        	        	        	        	       0	(  7  0  3)	  0  1 :  1
    125.9182	        	        	        	        	       0	(  3  0  6)	  0  1 :  1
    126.8973	        	        	        	        	       0	(  4  2  5)	  0  1 :  1
    127.2610	        	        	        	        	       0	(  0  5  1)	  0  1 :  1
    127.3663	        	        	        	        	       0	(  0  4  4)	  0  1 :  1
    127.5070	        	        	        	        	       0	(  0  2  6)	  0  1 :  1
    127.5228	        	        	        	        	       0	(  2  3  5)	  0  1 :  1
    128.7555	        	        	        	        	       0	(  8  0  0)	  0  1 :  1
    129.0443	        	        	        	        	       0	(  6  3  2)	  0  1 :  1
    129.1168	        	        	        	        	       0	(  1  5  1)	  0  1 :  1
    129.2249	        	        	        	        	       0	(  1  4  4)	  0  1 :  1
    129.3692	        	        	        	        	       0	(  1  2  6)	  0  1 :  1
    129.8654	        	        	        	        	       0	(  5  1  5)	  0  1 :  1
    130.2920	        	        	        	        	       0	(  7  2  2)	  0  1 :  1
    130.3286	        	        	        	        	       0	(  7  1  3)	  0  1 :  1
    130.5012	        	        	        	        	       0	(  3  1  6)	  0  1 :  1
    131.5903	        	        	        	        	       0	(  8  0  1)	  0  1 :  1
    132.0268	        	        	        	        	       0	(  2  5  0)	  0  1 :  1
    132.5593	        	        	        	        	       0	(  5  4  1)	  0  1 :  1
    133.5384	        	        	        	        	       0	(  8  1  0)	  0  1 :  1
    135.0145	        	        	        	        	       0	(  2  5  1)	  0  1 :  1
    135.1332	        	        	        	        	       0	(  2  4  4)	  0  1 :  1
    135.2918	        	        	        	        	       0	(  2  2  6)	  0  1 :  1
    136.6064	        	        	        	        	       0	(  8  1  1)	  0  1 :  1
    137.4243	        	        	        	        	       0	(  3  3  5)	  0  1 :  1
    138.1013	        	        	        	        	       0	(  1  5  2)	  0  1 :  1
    138.5606	        	        	        	        	       0	(  4  4  3)	  0  1 :  1
    139.8949	        	        	        	        	       0	(  4  0  6)	  0  1 :  1
    140.2973	        	        	        	        	       0	(  6  2  4)	  0  1 :  1
    141.0085	        	        	        	        	       0	(  8  0  2)	  0  1 :  1
    142.1668	        	        	        	        	       0	(  5  4  2)	  0  1 :  1
    143.4702	        	        	        	        	       0	(  5  3  4)	  0  1 :  1
    144.9843	        	        	        	        	       0	(  6  3  3)	  0  1 :  1
    145.1601	        	        	        	        	       0	(  2  5  2)	  0  1 :  1
    145.8683	        	        	        	        	       0	(  4  1  6)	  0  1 :  1
    146.0560	        	        	        	        	       0	(  5  2  5)	  0  1 :  1
    146.5799	        	        	        	        	       0	(  3  5  1)	  0  1 :  1
    146.6965	        	        	        	        	       0	(  7  2  3)	  0  1 :  1
    146.7325	        	        	        	        	       0	(  3  4  4)	  0  1 :  1
    146.9369	        	        	        	        	       0	(  3  2  6)	  0  1 :  1
    147.1540	        	        	        	        	       0	(  8  1  2)	  0  1 :  1
    147.9489	        	        	        	        	       0	(  7  3  1)	  0  1 :  1
    148.1074	        	        	        	        	       0	(  7  0  4)	  0  1 :  1
    149.1264	        	        	        	        	       0	(  6  0  5)	  0  1 :  1
    150.9866	        	        	        	        	       0	(  1  0  7)	  0  1 :  1
    151.3415	        	        	        	        	       0	(  8  2  0)	  0  1 :  1
    155.2368	        	        	        	        	       0	(  0  5  3)	  0  1 :  1
    155.7769	        	        	        	        	       0	(  0  1  7)	  0  1 :  1
    155.7805	        	        	        	        	       0	(  7  1  4)	  0  1 :  1
    156.1750	        	        	        	        	       0	(  4  3  5)	  0  1 :  1
    156.2577	        	        	        	        	       0	(  8  2  1)	  0  1 :  1
    156.7526	        	        	        	        	       0	(  6  4  0)	  0  1 :  1
    157.1098	        	        	        	        	       0	(  6  1  5)	  0  1 :  1
    158.9977	        	        	        	        	       0	(  1  5  3)	  0  1 :  1
    159.6320	        	        	        	        	       0	(  1  1  7)	  0  1 :  1
    161.4907	        	        	        	        	       0	(  3  5  2)	  0  1 :  1
    161.5885	        	        	        	        	       0	(  1  3  6)	  0  1 :  1
    161.9998	        	        	        	        	       0	(  2  0  7)	  0  1 :  1
    163.0819	        	        	        	        	       0	(  6  4  1)	  0  1 :  1
